DTS Sentinel unit serial number:	SN410029Multiplexer serial number:	ORYXHardware model number:	OX2-SRSoftware version number:	ORYX F/W v4,00 Oryx Data Collector v3.7.2.0data status	okinstallation	BH3 CH2differential loss correction	single-endedforward channel	channel 2reverse channel	N/Adate	2023/12/06time	00:12:28forward acquisition time	300,00reverse acquisition time	0,00gamma	499,1914k internal	0,3196k external	0,3196temperature offset calibration	1,0000default loss term (dB/km)	0,3820temperature slope calibration	1,0000multiplexer offset coefficient	1,0000multiplexer slope coefficient	1,0000fibre end	0,00T internal ref (°C)	9,44T ext. ref 1 (°C)	-5,35T ext. ref 2 (°C)	-5,43length (m)	temperature (°C)	Stokes	anti-Stokes-744,400	-200,000	-0,023	0,094
-743,385	-150,508	-0,198	0,011
-742,371	129,784	-0,043	0,040
-741,356	150,886	-0,166	0,164
-740,342	58,410	0,182	-0,130
-739,327	52,128	-0,212	0,147
-738,312	-102,757	0,095	-0,016
-737,298	-6,510	-0,299	0,148
-736,283	800,000	0,053	-0,160
-735,269	-23,115	-0,283	0,123
-734,254	-200,000	0,006	-0,127
-733,239	29,467	-0,385	-0,238
-732,225	207,529	0,143	-0,163
-731,210	236,356	0,123	0,149
-730,196	268,073	0,030	-0,038
-729,181	-158,320	-0,113	-0,005
-728,167	-143,427	-0,144	-0,010
-727,152	227,425	-0,056	-0,066
-726,137	-119,589	-0,108	-0,013
-725,123	290,982	-0,033	-0,043
-724,108	265,394	-0,065	-0,083
-723,094	-6,829	-0,145	-0,071
-722,079	394,585	0,046	-0,071
-721,064	241,609	0,103	-0,125
-720,050	232,015	-0,017	-0,020
-719,035	800,000	-0,047	0,124
-718,021	-133,773	0,007	0,001
-717,006	759,742	0,028	-0,055
-715,991	800,000	-0,021	0,045
-714,977	-200,000	-0,032	-0,111
-713,962	107,808	-0,063	-0,055
-712,948	800,000	-0,052	0,123
-711,933	609,784	0,094	-0,172
-710,918	-89,775	-0,130	-0,027
-709,904	491,402	-0,006	0,010
-708,889	-200,000	-0,011	-0,129
-707,875	97,078	0,024	-0,020
-706,860	-200,000	-0,009	-0,103
-705,845	800,000	0,042	0,109
-704,831	-27,043	-0,050	0,021
-703,816	-28,747	0,166	0,069
-702,802	-200,000	0,000	0,027
-701,787	212,816	-0,127	-0,146
-700,772	-200,000	-0,004	0,075
-699,758	-26,403	-0,032	-0,014
-698,743	800,000	-0,031	0,076
-697,729	-165,181	-0,053	-0,002
-696,714	-64,345	0,139	0,041
-695,699	3,687	-0,032	0,017
-694,685	230,273	0,007	0,009
-693,670	-200,000	-0,022	-0,072
-692,656	-137,534	-0,105	-0,008
-691,641	209,896	0,091	-0,103
-690,627	747,076	-0,061	0,120
-689,612	-200,000	0,025	0,101
-688,597	800,000	0,033	0,084
-687,583	135,101	-0,047	0,045
-686,568	-200,000	0,018	0,074
-685,554	-200,000	-0,013	-0,042
-684,539	-37,088	0,135	-0,052
-683,524	-200,000	-0,010	0,044
-682,510	-134,985	-0,058	0,005
-681,495	800,000	-0,040	0,116
-680,481	-58,732	-0,134	-0,042
-679,466	221,434	0,094	0,110
-678,451	191,553	-0,096	-0,105
-677,437	66,432	0,141	0,104
-676,422	-200,000	0,025	0,090
-675,408	-200,000	-0,011	-0,199
-674,393	385,706	-0,027	-0,040
-673,378	-105,622	-0,223	-0,036
-672,364	-189,537	0,046	-0,000
-671,349	41,618	-0,098	-0,065
-670,335	-7,242	0,108	-0,053
-669,320	800,000	-0,064	-0,138
-668,305	325,516	0,024	0,033
-667,291	-14,199	0,036	-0,017
-666,276	-16,345	-0,128	0,059
-665,262	-132,775	-0,063	0,006
-664,247	800,000	-0,021	0,050
-663,232	22,331	-0,154	-0,091
-662,218	74,188	-0,025	0,019
-661,203	800,000	-0,029	-0,078
-660,189	-10,857	-0,092	0,044
-659,174	-4,381	-0,100	-0,050
-658,159	190,897	-0,082	-0,090
-657,145	-200,000	-0,009	-0,057
-656,130	365,566	0,026	0,038
-655,116	-106,112	-0,048	-0,008
-654,101	-110,802	0,086	0,013
-653,086	800,000	-0,011	0,022
-652,072	146,840	0,087	0,085
-651,057	390,121	-0,030	0,045
-650,043	-200,000	0,011	-0,080
-649,028	-99,854	0,128	0,023
-648,014	8,640	0,083	0,045
-646,999	-119,176	-0,189	-0,024
-645,984	-23,855	-0,059	-0,025
-644,970	135,622	0,070	-0,066
-643,955	15,881	0,068	-0,039
-642,941	800,000	-0,075	-0,184
-641,926	250,282	-0,007	-0,009
-640,911	93,645	0,094	-0,077
-639,897	800,000	0,016	0,046
-638,882	426,512	0,027	-0,042
-637,868	-169,084	-0,031	-0,001
-636,853	-13,650	-0,076	-0,036
-635,838	800,000	-0,058	-0,158
-634,824	290,604	0,038	0,050
-633,809	170,767	-0,067	0,070
-632,795	423,472	-0,024	0,037
-631,780	37,774	0,035	-0,022
-630,765	71,379	-0,054	-0,041
-629,751	800,000	0,056	-0,133
-628,736	125,496	-0,123	0,112
-627,722	-47,196	-0,083	-0,029
-626,707	-32,858	0,193	0,078
-625,692	-72,085	-0,049	-0,013
-624,678	800,000	0,040	-0,115
-623,663	12,239	0,165	0,092
-622,649	800,000	-0,064	-0,153
-621,634	177,941	0,026	-0,027
-620,619	800,000	0,050	-0,126
-619,605	-184,164	-0,069	0,001
-618,590	20,283	0,074	-0,043
-617,576	800,000	-0,009	-0,025
-616,561	270,753	0,074	0,094
-615,546	635,166	0,025	-0,047
-614,532	-200,000	-0,001	-0,062
-613,517	277,686	0,056	0,072
-612,503	-87,813	0,112	-0,024
-611,488	42,341	0,011	-0,007
-610,474	-200,000	0,002	0,058
-609,459	35,524	0,012	-0,008
-608,444	380,750	0,059	0,088
-607,430	-200,000	-0,014	-0,196
-606,415	480,602	-0,035	-0,058
-605,401	-200,000	-0,012	-0,151
-604,386	-71,013	0,025	-0,007
-603,371	-200,000	-0,006	0,178
-602,357	-166,490	0,188	-0,006
-601,342	-200,000	0,002	-0,021
-600,328	-98,857	-0,041	-0,008
-599,313	-200,000	0,000	-0,173
-598,298	35,513	0,051	0,033
-597,284	295,608	0,094	-0,125
-596,269	-162,088	0,132	-0,005
-595,255	402,927	-0,046	-0,070
-594,240	-200,000	0,022	-0,111
-593,225	-200,000	-0,002	0,062
-592,211	-200,000	-0,010	-0,049
-591,196	772,556	0,064	-0,127
-590,182	800,000	0,024	-0,057
-589,167	-200,000	0,054	0,182
-588,152	-73,603	-0,112	-0,029
-587,138	-124,301	-0,153	-0,017
-586,123	800,000	-0,025	0,061
-585,109	-10,606	-0,051	-0,024
-584,094	347,487	-0,012	0,017
-583,079	800,000	-0,063	-0,129
-582,065	-200,000	-0,015	0,061
-581,050	800,000	0,035	-0,099
-580,036	800,000	-0,020	-0,056
-579,021	3,900	-0,051	0,027
-578,006	-200,000	0,028	-0,125
-576,992	-200,000	-0,040	-0,134
-575,977	800,000	0,042	-0,094
-574,963	-200,000	0,020	0,235
-573,948	-200,000	-0,007	0,044
-572,934	-52,700	0,054	-0,018
-571,919	-48,541	-0,116	-0,040
-570,904	-95,720	-0,103	0,020
-569,890	-109,906	-0,078	-0,012
-568,875	-8,970	0,046	0,022
-567,861	-71,859	0,154	0,041
-566,846	797,767	-0,018	-0,037
-565,831	-22,697	0,066	0,029
-564,817	-200,000	0,014	0,129
-563,802	-70,125	-0,085	-0,023
-562,788	381,183	0,054	0,081
-561,773	800,000	0,077	0,156
-560,758	405,016	0,072	-0,109
-559,744	-200,000	0,010	0,059
-558,729	285,087	0,049	0,065
-557,715	800,000	-0,035	0,090
-556,700	131,475	0,052	0,049
-555,685	726,064	0,027	-0,052
-554,671	99,898	0,065	0,054
-553,656	-200,000	0,016	-0,114
-552,642	79,919	-0,037	0,028
-551,627	-200,000	0,007	-0,137
-550,612	404,414	0,045	-0,068
-549,598	157,000	-0,089	-0,089
-548,583	-57,260	0,048	-0,015
-547,569	43,957	-0,134	-0,089
-546,554	-112,641	0,094	-0,013
-545,539	28,836	0,024	-0,015
-544,525	-200,000	0,017	0,105
-543,510	-54,144	-0,130	0,042
-542,496	-200,000	0,016	-0,092
-541,481	-63,754	-0,092	-0,027
-540,466	-113,000	-0,119	0,017
-539,452	-195,429	0,134	0,001
-538,437	-92,358	0,175	-0,035
-537,423	35,636	0,090	-0,057
-536,408	83,580	0,098	-0,077
-535,393	226,394	-0,086	-0,101
-534,379	-99,246	0,044	0,008
-533,364	-200,000	-0,019	-0,071
-532,350	-50,235	0,178	0,060
-531,335	-200,000	0,003	0,149
-530,321	400,180	-0,008	0,012
-529,306	405,467	-0,048	0,074
-528,291	61,348	-0,074	-0,053
-527,277	-56,565	-0,137	-0,044
-526,262	-200,000	-0,009	-0,033
-525,248	-200,000	-0,005	-0,079
-524,233	-56,303	0,116	-0,037
-523,218	-137,865	0,009	0,001
-522,204	800,000	0,001	-0,004
-521,189	-200,000	0,016	-0,069
-520,175	331,851	0,057	-0,080
-519,160	618,488	-0,061	-0,112
-518,145	-44,423	0,128	-0,046
-517,131	-200,000	0,003	0,030
-516,116	-42,320	0,055	-0,020
-515,102	-22,686	-0,041	0,018
-514,087	42,337	-0,230	-0,151
-513,072	-200,000	0,003	-0,060
-512,058	-200,000	-0,006	-0,113
-511,043	199,579	0,047	0,052
-510,029	800,000	0,036	0,113
-509,014	74,048	-0,057	0,043
-507,999	-200,000	0,001	0,048
-506,985	800,000	0,041	-0,085
-505,970	309,213	-0,078	-0,105
-504,956	28,592	0,073	0,045
-503,941	162,667	-0,041	0,041
-502,926	18,960	-0,059	0,034
-501,912	800,000	-0,040	0,099
-500,897	800,000	0,099	-0,266
-499,883	-117,821	-0,187	0,024
-498,868	-11,947	-0,033	0,016
-497,853	30,398	-0,060	-0,037
-496,839	-200,000	-0,004	-0,078
-495,824	93,666	-0,073	-0,060
-494,810	-64,064	-0,072	-0,021
-493,795	87,762	0,033	0,026
-492,781	284,790	0,074	-0,097
-491,766	-200,000	0,008	0,062
-490,751	-200,000	0,007	0,075
-489,737	-200,000	-0,003	0,105
-488,722	-200,000	-0,003	0,094
-487,708	-200,000	-0,004	-0,044
-486,693	800,000	-0,028	-0,089
-485,678	370,738	-0,045	0,067
-484,664	-124,265	-0,187	0,021
-483,649	259,933	0,057	0,071
-482,635	800,000	-0,075	0,189
-481,620	-193,422	0,116	0,001
-480,605	264,752	-0,064	-0,080
-479,591	734,411	-0,015	-0,029
-478,576	800,000	-0,050	-0,124
-477,562	-200,000	-0,020	-0,133
-476,547	-200,000	0,006	-0,125
-475,532	-70,387	0,038	0,010
-474,518	-200,000	0,007	-0,090
-473,503	-88,879	0,039	-0,008
-472,489	-91,741	0,136	-0,028
-471,474	-200,000	-0,023	0,099
-470,459	2,050	-0,047	0,024
-469,445	800,000	-0,041	-0,105
-468,430	-89,508	-0,038	-0,008
-467,416	-98,235	0,061	0,011
-466,401	-53,748	0,092	0,030
-465,386	99,159	-0,058	-0,048
-464,372	800,000	-0,089	-0,184
-463,357	705,133	-0,071	-0,136
-462,343	800,000	0,035	0,082
-461,328	-19,950	-0,127	0,056
-460,313	94,196	0,014	-0,011
-459,299	92,574	0,030	0,024
-458,284	-200,000	-0,013	-0,045
-457,270	64,425	0,158	0,114
-456,255	-33,369	-0,132	0,052
-455,241	131,992	0,028	0,026
-454,226	204,359	-0,061	-0,068
-453,211	6,872	-0,099	0,053
-452,197	66,622	0,100	0,073
-451,182	-19,626	0,102	0,045
-450,168	592,046	-0,018	0,033
-449,153	419,896	0,007	-0,011
-448,138	-123,041	-0,068	0,008
-447,124	-111,989	-0,086	-0,012
-446,109	-14,411	-0,111	-0,051
-445,095	93,627	0,139	-0,113
-444,080	800,000	-0,069	0,173
-443,065	-200,000	-0,007	-0,060
-442,051	-200,000	0,046	-0,174
-441,036	-107,430	-0,089	-0,014
-440,022	-62,673	-0,040	-0,012
-439,007	47,274	-0,065	-0,044
-437,992	-200,000	0,016	0,088
-436,978	27,270	-0,081	-0,049
-435,963	-200,000	-0,002	-0,105
-434,949	-200,000	0,010	0,051
-433,934	192,259	0,103	-0,112
-432,919	-200,000	-0,022	0,073
-431,905	48,299	-0,055	-0,037
-430,890	-188,019	0,078	-0,001
-429,876	-156,686	-0,083	0,004
-428,861	177,814	0,015	0,016
-427,846	-3,921	0,092	-0,046
-426,832	-10,153	-0,082	0,039
-425,817	-13,782	0,064	-0,030
-424,803	-200,000	0,002	0,046
-423,788	14,042	0,041	0,023
-422,773	800,000	-0,026	0,075
-421,759	248,682	-0,015	0,019
-420,744	210,773	-0,047	0,053
-419,730	64,064	-0,031	-0,022
-418,715	-122,901	-0,039	0,004
-417,701	41,707	0,066	0,043
-416,686	-200,000	0,002	0,040
-415,671	-200,000	-0,008	0,026
-414,657	80,908	0,079	0,061
-413,642	-200,000	-0,003	-0,062
-412,628	-7,203	0,025	0,012
-411,613	424,186	-0,074	-0,115
-410,598	327,037	-0,015	-0,020
-409,584	-200,000	0,024	0,163
-408,569	-37,633	-0,045	-0,017
-407,555	800,000	0,038	0,086
-406,540	800,000	0,016	-0,046
-405,525	-76,779	-0,155	-0,039
-404,511	800,000	-0,033	-0,080
-403,496	652,920	0,023	-0,042
-402,482	125,240	-0,082	0,074
-401,467	563,017	0,052	0,091
-400,452	-200,000	-0,060	0,229
-399,438	443,644	-0,110	0,174
-398,423	-200,000	-0,008	0,073
-397,409	800,000	0,075	-0,163
-396,394	-143,288	-0,047	0,003
-395,379	31,291	0,081	-0,050
-394,365	-101,188	0,103	0,018
-393,350	8,451	0,141	-0,076
-392,336	8,092	-0,058	-0,031
-391,321	13,482	-0,062	-0,035
-390,306	800,000	-0,037	0,099
-389,292	206,207	-0,064	-0,072
-388,277	-200,000	-0,036	0,149
-387,263	653,295	0,063	0,116
-386,248	-200,000	0,005	-0,061
-385,233	84,404	-0,084	0,066
-384,219	-110,639	0,094	0,014
-383,204	-87,415	-0,139	-0,030
-382,190	49,059	0,054	0,036
-381,175	800,000	0,030	0,062
-380,160	65,234	0,099	0,072
-379,146	-200,000	0,025	0,109
-378,131	183,118	0,075	0,080
-377,117	-115,631	0,043	-0,006
-376,102	800,000	-0,057	-0,142
-375,088	402,916	0,066	0,099
-374,073	-54,981	0,154	-0,050
-373,058	689,446	0,012	-0,023
-372,044	90,803	0,026	-0,021
-371,029	402,377	-0,084	-0,128
-370,015	-45,688	0,040	0,014
-369,000	-93,670	-0,074	0,015
-367,985	-128,159	-0,038	0,004
-366,971	-180,117	-0,142	0,002
-365,956	127,328	-0,040	-0,036
-364,942	162,363	0,058	0,059
-363,927	343,199	0,051	0,072
-362,912	-32,071	0,051	0,021
-361,898	-200,000	-0,001	-0,062
-360,883	588,534	-0,030	-0,053
-359,869	-73,730	-0,098	-0,025
-358,854	-200,000	0,003	0,103
-357,839	220,249	0,107	0,124
-356,825	-200,000	0,000	0,291
-355,810	-200,000	0,039	0,168
-354,796	800,000	0,023	0,058
-353,781	43,539	0,039	-0,025
-352,766	-200,000	-0,004	-0,093
-351,752	58,152	0,103	0,073
-350,737	620,279	0,048	0,087
-349,723	-57,846	0,102	-0,032
-348,708	359,990	0,054	0,078
-347,693	-200,000	0,008	-0,082
-346,679	767,170	-0,017	-0,034
-345,664	434,680	0,020	0,031
-344,650	-149,074	-0,060	-0,003
-343,635	-200,000	-0,002	0,030
-342,620	782,106	0,050	0,099
-341,606	-200,000	-0,030	0,102
-340,591	71,269	-0,051	-0,038
-339,577	19,682	-0,062	-0,036
-338,562	148,606	0,017	-0,017
-337,548	-200,000	-0,025	-0,086
-336,533	-9,209	0,114	-0,054
-335,518	-200,000	-0,014	0,074
-334,504	74,056	0,080	-0,060
-333,489	159,623	-0,075	0,075
-332,475	-200,000	-0,020	-0,084
-331,460	-200,000	-0,015	-0,183
-330,445	45,103	0,053	0,035
-329,431	-200,000	0,012	0,188
-328,416	-184,694	0,033	0,000
-327,402	-124,899	0,073	0,008
-326,387	-200,000	-0,016	0,068
-325,372	-200,000	-0,007	-0,122
-324,358	11,301	-0,105	0,057
-323,343	-120,206	0,187	-0,023
-322,329	-200,000	0,041	-0,149
-321,314	46,546	-0,117	0,078
-320,299	501,580	0,070	0,117
-319,285	-93,642	-0,148	0,029
-318,270	121,816	0,006	0,006
-317,256	-166,168	-0,013	-0,000
-316,241	-34,686	-0,083	0,032
-315,226	800,000	0,015	-0,043
-314,212	253,900	0,087	0,106
-313,197	-200,000	0,004	0,067
-312,183	540,957	0,045	-0,078
-311,168	60,652	-0,066	-0,047
-310,153	-7,680	-0,023	0,011
-309,139	800,000	-0,035	-0,080
-308,124	-20,278	-0,090	-0,039
-307,110	86,602	-0,045	0,036
-306,095	-200,000	-0,007	0,034
-305,080	-167,483	0,079	0,002
-304,066	-55,671	-0,109	0,035
-303,051	-200,000	-0,003	0,037
-302,037	172,325	-0,021	0,021
-301,022	800,000	-0,019	-0,049
-300,008	794,889	0,077	0,152
-298,993	-200,000	-0,020	-0,064
-297,978	484,778	-0,022	-0,036
-296,964	47,516	-0,033	-0,022
-295,949	119,939	-0,176	-0,156
-294,935	502,311	0,064	-0,106
-293,920	658,134	-0,048	0,088
-292,905	-63,854	-0,070	0,020
-291,891	115,995	0,060	-0,053
-290,876	345,571	-0,036	0,050
-289,862	424,972	-0,080	-0,124
-288,847	64,346	-0,067	-0,049
-287,832	4,834	0,028	-0,015
-286,818	800,000	0,020	-0,062
-285,803	96,149	0,069	-0,056
-284,789	-200,000	-0,017	-0,159
-283,774	202,902	-0,030	-0,034
-282,759	-200,000	-0,015	0,066
-281,745	-81,856	-0,139	0,032
-280,730	191,723	0,057	0,062
-279,716	-80,417	-0,132	-0,031
-278,701	48,613	0,083	-0,056
-277,686	-200,000	0,018	0,159
-276,672	35,525	-0,031	-0,019
-275,657	194,726	0,082	-0,090
-274,643	-134,759	0,113	-0,010
-273,628	-200,000	-0,001	-0,080
-272,613	-27,143	0,039	-0,016
-271,599	-70,315	-0,069	-0,019
-270,584	-79,564	0,069	0,016
-269,570	800,000	-0,061	0,141
-268,555	652,788	0,037	-0,067
-267,540	-77,037	0,013	-0,003
-266,526	-200,000	0,015	-0,155
-265,511	17,966	0,054	0,031
-264,497	-152,553	0,083	0,004
-263,482	-40,220	0,190	0,070
-262,467	800,000	0,038	0,085
-261,453	800,000	-0,053	0,137
-260,438	121,980	0,074	-0,066
-259,424	227,622	-0,080	0,093
-258,409	-50,073	-0,118	-0,040
-257,395	211,679	-0,049	-0,056
-256,380	800,000	0,060	-0,167
-255,365	-13,840	-0,060	-0,028
-254,351	373,854	0,052	0,076
-253,336	129,908	-0,077	-0,070
-252,322	175,377	-0,139	0,144
-251,307	-10,617	0,029	0,014
-250,292	-200,000	0,011	0,092
-249,278	-75,781	0,111	0,028
-248,263	80,917	0,175	0,135
-247,249	-200,000	0,064	0,214
-246,234	585,644	0,025	0,044
-245,219	800,000	-0,021	0,064
-244,205	-35,944	0,034	0,013
-243,190	-200,000	0,010	-0,042
-242,176	-23,549	0,065	0,028
-241,161	800,000	0,031	-0,095
-240,146	44,744	-0,111	0,073
-239,132	-121,351	-0,046	-0,005
-238,117	100,722	-0,059	-0,049
-237,103	800,000	-0,056	-0,168
-236,088	-117,716	0,089	0,011
-235,073	-200,000	-0,012	0,137
-234,059	55,153	-0,038	-0,026
-233,044	-200,000	0,024	-0,077
-232,030	-145,747	-0,146	-0,009
-231,015	-7,504	0,054	0,026
-230,000	75,716	0,038	0,029
-228,986	147,917	-0,035	-0,034
-227,971	800,000	0,050	0,119
-226,957	-133,399	0,071	0,006
-225,942	-200,000	0,016	0,082
-224,927	800,000	-0,015	-0,038
-223,913	-200,000	-0,010	0,132
-222,898	93,535	0,108	-0,088
-221,884	4,243	0,073	0,038
-220,869	-200,000	-0,012	0,043
-219,855	517,127	0,064	0,107
-218,840	383,025	0,078	0,115
-217,825	65,587	-0,141	-0,102
-216,811	-200,000	-0,006	0,023
-215,796	92,828	-0,015	-0,012
-214,782	-60,931	0,070	0,021
-213,767	19,000	-0,157	-0,090
-212,752	165,908	0,142	0,144
-211,738	-200,000	0,024	-0,076
-210,723	800,000	0,055	0,155
-209,709	-24,361	-0,063	0,027
-208,694	271,893	-0,092	0,115
-207,679	17,406	-0,127	-0,072
-206,665	-200,000	0,019	0,092
-205,650	-200,000	0,021	0,068
-204,636	800,000	-0,053	-0,164
-203,621	5,542	-0,066	-0,035
-202,606	141,762	-0,049	-0,047
-201,592	800,000	-0,038	0,080
-200,577	33,543	-0,027	0,016
-199,563	-200,000	-0,014	-0,126
-198,548	335,461	-0,051	0,071
-197,533	255,425	-0,100	0,123
-196,519	360,962	0,062	0,088
-195,504	-200,000	-0,009	-0,094
-194,490	-73,611	0,091	-0,023
-193,475	-131,315	-0,047	-0,004
-192,460	-5,994	0,064	0,031
-191,446	-123,462	0,131	0,015
-190,431	-130,452	0,132	-0,013
-189,417	-200,000	0,054	-0,248
-188,402	-97,829	-0,049	0,009
-187,387	431,381	-0,067	-0,104
-186,373	-10,665	0,019	-0,009
-185,358	159,654	0,079	0,078
-184,344	-200,000	0,001	0,061
-183,329	103,196	0,049	0,041
-182,315	106,439	-0,094	0,079
-181,300	84,482	-0,051	-0,040
-180,285	13,506	0,079	-0,044
-179,271	-200,000	-0,015	-0,133
-178,256	-40,194	0,019	0,007
-177,242	-113,205	-0,192	0,027
-176,227	-53,757	0,173	0,056
-175,212	54,911	-0,074	0,051
-174,198	800,000	0,056	0,138
-173,183	3,155	-0,035	0,018
-172,169	156,265	-0,066	0,065
-171,154	-200,000	-0,019	0,171
-170,139	-200,000	-0,002	0,050
-169,125	610,196	0,022	0,039
-168,110	-200,000	0,001	0,040
-167,096	800,000	0,035	0,093
-166,081	-21,142	-0,067	0,029
-165,066	474,711	0,011	-0,018
-164,052	-93,748	0,110	-0,021
-163,037	800,000	-0,068	-0,141
-162,023	135,268	0,045	-0,042
-161,008	800,000	-0,027	0,069
-159,993	-200,000	-0,037	0,252
-158,979	-35,837	-0,118	0,045
-157,964	-83,388	-0,014	0,003
-156,950	-200,000	-0,024	-0,124
-155,935	144,784	-0,056	-0,053
-154,920	800,000	0,027	0,076
-153,906	211,566	0,031	0,035
-152,891	119,248	-0,055	0,049
-151,877	196,748	-0,083	-0,090
-150,862	307,176	0,066	-0,088
-149,847	-200,000	0,002	0,082
-148,833	306,865	0,087	-0,116
-147,818	-200,000	-0,033	-0,237
-146,804	61,060	0,089	0,063
-145,789	96,480	-0,019	0,015
-144,775	-30,297	0,071	0,029
-143,760	14,457	0,037	-0,020
-142,745	-94,657	-0,059	-0,011
-141,731	19,849	0,049	-0,028
-140,716	-47,581	-0,046	-0,016
-139,702	32,367	-0,044	0,027
-138,687	-200,000	0,015	0,061
-137,672	-200,000	-0,001	-0,057
-136,658	629,126	-0,094	-0,169
-135,643	-39,944	-0,029	0,011
-134,629	-31,359	-0,018	0,007
-133,614	318,289	0,092	0,124
-132,599	-148,270	-0,076	0,004
-131,585	730,254	-0,051	0,097
-130,570	36,224	-0,095	0,060
-129,556	8,374	0,050	-0,027
-128,541	-200,000	-0,046	0,163
-127,526	293,700	-0,126	0,164
-126,512	800,000	0,092	0,185
-125,497	-155,656	0,100	0,004
-124,483	800,000	0,043	0,090
-123,468	800,000	-0,051	-0,109
-122,453	68,513	0,058	-0,042
-121,439	189,508	-0,057	-0,060
-120,424	-92,940	-0,175	-0,034
-119,410	800,000	-0,064	0,142
-118,395	-166,163	0,133	-0,004
-117,380	-133,703	0,107	0,009
-116,366	64,515	-0,078	-0,056
-115,351	-115,168	-0,119	0,016
-114,337	495,821	-0,071	-0,117
-113,322	800,000	0,039	0,102
-112,307	299,246	0,037	-0,048
-111,293	290,643	0,031	-0,040
-110,278	99,606	-0,024	0,020
-109,264	-200,000	0,000	-0,006
-108,249	-200,000	0,006	-0,096
-107,234	-200,000	-0,019	-0,139
-106,220	86,385	0,088	-0,069
-105,205	650,973	-0,047	0,087
-104,191	-48,673	-0,036	-0,012
-103,176	34,137	0,063	-0,039
-102,162	-200,000	-0,003	0,069
-101,147	-200,000	-0,018	0,074
-100,132	-200,000	0,003	-0,143
-99,118	-200,000	0,000	0,000
-98,103	-200,000	0,006	0,051
-97,089	-200,000	-0,004	-0,073
-96,074	-159,522	0,104	0,004
-95,059	-63,097	-0,117	0,034
-94,045	-200,000	-0,020	-0,112
-93,030	-200,000	-0,007	-0,076
-92,016	398,509	-0,080	-0,119
-91,001	406,250	0,062	0,093
-89,986	70,786	0,055	-0,040
-88,972	-18,717	-0,104	0,046
-87,957	-200,000	-0,058	0,194
-86,943	103,745	0,054	-0,045
-85,928	589,602	0,096	-0,170
-84,913	12,868	-0,091	-0,050
-83,899	-48,104	0,140	0,048
-82,884	800,000	-0,026	0,060
-81,870	-17,969	0,135	0,060
-80,855	-200,000	0,061	0,218
-79,840	69,272	-0,114	0,083
-78,826	198,860	0,071	-0,077
-77,811	97,979	-0,061	-0,049
-76,797	218,426	-0,007	-0,008
-75,782	800,000	-0,019	0,041
-74,767	-172,351	0,032	-0,001
-73,753	-200,000	0,010	0,111
-72,738	-200,000	-0,000	-0,025
-71,724	-200,000	-0,003	-0,015
-70,709	-200,000	0,030	-0,127
-69,694	605,277	-0,045	-0,080
-68,680	-71,444	-0,038	0,010
-67,665	-54,514	0,096	0,031
-66,651	-200,000	0,036	0,150
-65,636	182,715	0,079	-0,083
-64,622	-200,000	0,001	-0,029
-63,607	800,000	-0,015	-0,044
-62,592	40,228	0,071	0,045
-61,578	-52,336	0,133	-0,044
-60,563	116,736	0,036	0,031
-59,549	65,657	-0,078	0,056
-58,534	72,391	-2,321	-1,714
-57,519	800,000	-0,422	-1,085
-56,505	-200,000	-0,845	-4,956
-55,490	378,328	0,990	1,440
-54,476	800,000	5,417	12,035
-53,461	-200,000	21,932	342,402
-52,446	800,000	765,475	2322,581
-51,432	531,018	1663,681	2799,437
-50,417	69,173	1669,785	1215,976
-49,403	16,354	1589,040	886,826
-48,388	11,041	1542,633	833,580
-47,373	18,126	1536,330	866,383
-46,359	14,197	1524,765	839,909
-45,344	9,590	1520,845	814,339
-44,330	9,493	1518,880	812,761
-43,315	9,412	1517,323	811,482
-42,300	9,424	1515,461	810,517
-41,286	9,472	1513,570	809,717
-40,271	9,419	1512,350	808,765
-39,257	9,420	1510,838	807,927
-38,242	9,455	1509,478	807,343
-37,227	9,445	1508,221	806,588
-36,213	9,418	1506,771	805,647
-35,198	9,437	1505,334	804,942
-34,184	9,529	1504,073	804,700
-33,169	9,434	1502,567	803,386
-32,154	9,480	1501,272	802,892
-31,140	9,514	1499,646	802,161
-30,125	9,529	1498,323	801,496
-29,111	9,500	1497,252	800,745
-28,096	9,528	1496,087	800,228
-27,082	9,538	1495,043	799,690
-26,067	9,501	1493,966	798,899
-25,052	9,477	1492,809	798,127
-24,038	9,465	1491,560	797,370
-23,023	9,446	1490,777	796,823
-22,009	9,430	1489,946	796,267
-20,994	9,506	1488,523	795,854
-19,979	9,502	1487,500	795,257
-18,965	9,470	1486,379	794,464
-17,950	9,462	1485,687	794,022
-16,936	9,421	1484,721	793,271
-15,921	9,407	1483,533	792,537
-14,906	9,358	1482,394	791,654
-13,892	9,349	1481,283	790,984
-12,877	9,368	1480,306	790,524
-11,863	9,273	1479,420	789,550
-10,848	9,364	1478,545	789,504
-9,833	9,432	1477,598	789,303
-8,819	9,411	1476,621	788,643
-7,804	9,325	1475,467	787,576
-6,790	9,392	1474,707	787,467
-5,775	9,424	1473,803	787,108
-4,760	9,433	1472,663	786,516
-3,746	9,414	1471,628	785,835
-2,731	9,290	1470,475	784,579
-1,717	9,221	1469,605	783,746
-0,702	9,198	1468,649	783,093
0,313	9,018	1467,637	782,854
1,327	12,440	1463,602	797,357
2,342	21,538	1215,774	699,005
3,356	16,746	676,416	378,129
4,371	-12,715	457,598	210,512
5,386	-15,765	431,301	193,940
6,400	-15,936	422,776	189,845
7,415	-15,016	419,434	189,635
8,429	-15,909	416,660	187,104
9,444	-15,959	415,415	186,457
10,459	-15,804	414,131	186,082
11,473	-15,879	413,426	185,644
12,488	-15,849	412,612	185,304
13,502	-15,906	411,705	184,801
14,517	-15,859	410,873	184,476
15,531	-15,958	410,156	184,000
16,546	-15,903	409,426	183,732
17,561	-15,910	409,034	183,530
18,575	-15,781	408,243	183,337
19,590	-15,993	407,657	182,765
20,604	-15,836	407,194	182,757
21,619	-15,915	406,687	182,404
22,634	-15,829	406,187	182,283
23,648	-15,965	405,666	181,846
24,663	-15,875	405,035	181,670
25,677	-15,989	404,730	181,362
26,692	-15,763	404,216	181,423
27,707	-15,862	403,801	181,087
28,721	-15,851	403,373	180,894
29,736	-15,922	402,940	180,586
30,750	-15,973	402,669	180,379
31,765	-15,911	402,239	180,254
32,780	-15,897	401,731	180,030
33,794	-15,884	401,442	179,902
34,809	-15,771	400,995	179,839
35,823	-16,012	400,579	179,310
36,838	-15,831	400,099	179,324
37,853	-15,934	399,655	178,970
38,867	-15,971	399,450	178,812
39,882	-15,819	398,995	178,797
40,896	-15,854	398,682	178,594
41,911	-15,896	398,223	178,316
42,926	-15,853	398,062	178,286
43,940	-15,892	397,485	177,958
44,955	-15,815	397,171	177,906
45,969	-15,650	396,603	177,857
46,984	-15,681	396,390	177,704
47,999	-15,852	396,106	177,332
49,013	-15,819	395,868	177,254
50,028	-15,786	395,370	177,059
51,042	-15,838	395,162	176,881
52,057	-15,732	394,747	176,821
53,071	-15,870	394,334	176,435
54,086	-15,834	393,954	176,299
55,101	-15,734	393,567	176,242
56,115	-15,816	393,283	175,991
57,130	-15,836	392,949	175,798
58,144	-15,790	392,253	175,532
59,159	-15,752	391,903	175,410
60,174	-15,907	391,763	175,127
61,188	-15,715	391,369	175,188
62,203	-15,855	391,014	174,830
63,217	-15,767	390,652	174,769
64,232	-15,799	390,097	174,463
65,247	-15,911	389,821	174,176
66,261	-15,757	389,512	174,224
67,276	-15,762	389,273	174,095
68,290	-15,775	388,987	173,935
69,305	-15,789	388,789	173,813
70,320	-15,765	388,327	173,622
71,334	-15,775	387,913	173,409
72,349	-15,860	387,699	173,186
73,363	-15,873	387,129	172,899
74,378	-15,844	386,822	172,785
75,393	-15,740	386,463	172,745
76,407	-15,810	386,330	172,578
77,422	-15,693	385,868	172,509
78,436	-15,772	385,477	172,216
79,451	-15,807	385,168	172,017
80,466	-15,725	384,932	172,003
81,480	-15,865	384,560	171,640
82,495	-15,738	384,214	171,635
83,509	-15,612	383,846	171,617
84,524	-15,784	383,665	171,299
85,539	-15,651	383,344	171,312
86,553	-15,644	382,937	171,123
87,568	-15,648	382,756	171,023
88,582	-15,742	382,353	170,706
89,597	-15,798	382,035	170,478
90,611	-15,931	381,977	170,265
91,626	-15,721	381,351	170,240
92,641	-15,794	381,140	170,037
93,655	-15,719	380,863	169,995
94,670	-15,790	380,536	169,743
95,684	-15,753	380,357	169,695
96,699	-15,745	379,877	169,476
97,714	-15,676	379,683	169,462
98,728	-15,779	379,170	169,088
99,743	-15,758	379,164	169,096
100,757	-15,695	378,719	168,962
101,772	-15,657	378,317	168,817
102,787	-15,622	378,043	168,724
103,801	-15,718	377,724	168,444
104,816	-15,794	377,589	168,273
105,830	-15,661	377,153	168,232
106,845	-15,631	376,807	168,100
107,860	-15,764	376,538	167,798
108,874	-15,638	376,176	167,781
109,889	-15,724	376,080	167,614
110,903	-15,716	375,502	167,352
111,918	-15,776	375,412	167,221
112,933	-15,764	375,256	167,152
113,947	-15,817	374,897	166,911
114,962	-15,715	374,369	166,788
115,976	-15,756	374,057	166,583
116,991	-15,698	373,747	166,502
118,006	-15,781	373,570	166,305
119,020	-15,648	373,308	166,340
120,035	-15,663	373,105	166,216
121,049	-15,701	372,893	166,060
122,064	-15,808	372,715	165,831
123,079	-15,681	372,243	165,766
124,093	-15,660	371,886	165,618
125,108	-15,572	371,635	165,600
126,122	-15,524	371,355	165,521
127,137	-15,731	371,040	165,108
128,151	-15,547	370,710	165,176
129,166	-15,708	370,404	164,824
130,181	-15,484	369,949	164,884
131,195	-15,597	369,742	164,638
132,210	-15,678	369,447	164,391
133,224	-15,809	369,380	164,185
134,239	-15,737	368,826	164,013
135,254	-15,701	368,612	163,947
136,268	-15,570	368,156	163,892
137,283	-15,700	367,877	163,593
138,297	-15,556	367,727	163,690
139,312	-15,760	367,379	163,268
140,327	-15,884	366,862	162,873
141,341	-16,259	366,624	162,291
142,356	-16,176	366,417	162,287
143,370	-12,886	368,019	167,034
144,385	-6,059	371,597	177,116
145,400	-1,698	373,639	183,502
146,414	-0,619	373,484	184,750
147,429	-0,530	373,640	184,921
148,443	-0,383	373,262	184,900
149,458	-0,299	373,172	184,943
150,473	-0,205	372,892	184,904
151,487	-0,238	372,765	184,784
152,502	-0,199	372,455	184,661
153,516	-0,328	372,081	184,301
154,531	-0,122	371,802	184,401
155,546	-0,171	371,502	184,175
156,560	-0,194	371,240	184,000
157,575	-0,159	371,057	183,936
158,589	-0,094	370,493	183,720
159,604	-0,163	370,453	183,600
160,619	-0,095	370,257	183,569
161,633	-0,123	369,933	183,358
162,648	-0,144	369,841	183,270
163,662	-0,077	369,583	183,208
164,677	-0,031	369,501	183,207
165,692	0,021	369,107	183,060
166,706	-0,161	368,791	182,663
167,721	-0,241	368,309	182,311
168,735	-0,293	368,107	182,131
169,750	-0,296	367,800	181,959
170,764	-0,138	367,577	182,025
171,779	-0,235	367,364	181,786
172,794	-0,241	367,084	181,623
173,808	-0,254	366,839	181,470
174,823	-0,409	366,588	181,142
175,837	-0,273	366,339	181,167
176,852	-0,217	366,212	181,157
177,867	-0,298	365,919	180,897
178,881	-0,268	365,649	180,784
179,896	-0,235	365,394	180,682
180,910	-0,012	365,076	180,777
181,925	-0,146	364,795	180,461
182,940	-0,282	364,642	180,205
183,954	-0,150	364,185	180,122
184,969	-0,111	364,114	180,118
185,983	-0,197	363,950	179,917
186,998	-0,116	363,589	179,820
188,013	-0,188	363,254	179,551
189,027	-0,218	363,084	179,415
190,042	-0,261	362,736	179,176
191,056	-0,158	362,528	179,181
192,071	-0,162	362,318	179,056
193,086	-0,166	361,985	178,871
194,100	-0,026	361,792	178,927
195,115	-0,077	361,500	178,705
196,129	-0,116	361,218	178,504
197,144	-0,205	360,970	178,260
198,159	-0,136	360,726	178,205
199,173	0,009	360,467	178,234
200,188	-0,073	360,028	177,904
201,202	-0,060	359,911	177,846
202,217	-0,026	359,616	177,724
203,232	-0,087	359,428	177,543
204,246	0,018	359,118	177,499
205,261	0,088	358,755	177,386
206,275	-0,193	358,763	177,042
207,290	-0,114	358,434	176,957
208,304	-0,073	358,100	176,824
209,319	-0,010	357,897	176,783
210,334	0,011	357,587	176,639
211,348	0,048	357,290	176,521
212,363	0,036	357,197	176,445
213,377	0,028	357,059	176,352
214,392	0,235	356,555	176,330
215,407	0,150	356,459	176,167
216,421	0,027	356,292	175,924
217,436	0,094	356,140	175,912
218,450	0,038	355,828	175,676
219,465	0,077	355,444	175,517
220,480	0,100	355,221	175,418
221,494	0,190	354,979	175,389
222,509	-0,070	355,006	175,082
223,523	0,112	354,657	175,107
224,538	0,178	354,352	175,018
225,553	-0,038	354,066	174,609
226,567	0,062	353,810	174,583
227,582	0,084	353,718	174,548
228,596	0,023	353,450	174,329
229,611	0,266	353,086	174,417
230,626	0,048	352,857	174,035
231,640	0,212	352,627	174,097
232,655	0,099	352,334	173,805
233,669	0,272	352,078	173,864
234,684	-0,040	352,066	173,481
235,699	0,117	351,611	173,423
236,713	0,113	351,540	173,368
237,728	0,065	351,400	173,227
238,742	0,149	351,066	173,144
239,757	0,264	350,679	173,071
240,772	0,184	350,514	172,882
241,786	0,011	350,314	172,568
242,801	0,142	350,206	172,651
243,815	0,155	350,015	172,556
244,830	0,099	349,698	172,320
245,844	0,092	349,398	172,149
246,859	0,136	349,146	172,060
247,874	0,031	349,003	171,853
248,888	0,278	348,628	171,937
249,903	0,120	348,479	171,667
250,917	-0,010	348,330	171,429
251,932	0,104	347,977	171,371
252,947	0,169	347,938	171,411
253,961	0,060	347,599	171,103
254,976	0,117	347,343	171,028
255,990	0,159	347,221	171,000
257,005	0,230	347,010	170,962
258,020	0,199	346,754	170,785
259,034	0,189	346,496	170,632
260,049	0,213	346,211	170,503
261,063	0,039	345,937	170,156
262,078	0,138	345,834	170,202
263,093	0,116	345,574	170,034
264,107	0,137	345,280	169,897
265,122	0,157	345,078	169,806
266,136	0,255	344,787	169,759
267,151	0,106	344,627	169,496
268,166	0,410	344,180	169,606
269,180	0,085	344,036	169,152
270,195	0,256	343,879	169,253
271,209	0,195	343,815	169,137
272,224	0,316	343,582	169,144
273,239	0,349	343,303	169,029
274,253	0,333	342,949	168,822
275,268	0,258	342,802	168,650
276,282	0,336	342,761	168,702
277,297	0,296	342,377	168,453
278,312	0,141	342,232	168,193
279,326	0,462	341,821	168,336
280,341	0,400	341,854	168,267
281,355	0,371	341,536	168,063
282,370	0,319	341,209	167,829
283,384	0,352	340,981	167,739
284,399	0,414	340,894	167,750
285,414	0,188	340,668	167,372
286,428	0,250	340,463	167,325
287,443	0,198	340,227	167,136
288,457	0,326	339,862	167,086
289,472	0,398	339,544	166,994
290,487	0,428	339,338	166,911
291,501	0,319	339,241	166,727
292,516	0,290	339,078	166,600
293,530	0,356	338,807	166,526
294,545	0,347	338,613	166,406
295,560	0,324	338,423	166,272
296,574	0,432	338,146	166,240
297,589	0,379	337,963	166,077
298,603	0,530	337,708	166,104
299,618	0,452	337,531	165,916
300,633	0,595	337,309	165,950
301,647	0,318	337,200	165,575
302,662	0,460	336,829	165,535
303,676	0,456	336,676	165,440
304,691	0,299	336,476	165,155
305,706	0,273	336,023	164,889
306,720	0,431	335,899	164,988
307,735	0,292	335,717	164,730
308,749	0,501	335,537	164,857
309,764	0,413	335,099	164,530
310,779	0,298	334,969	164,326
311,793	0,190	334,864	164,141
312,808	0,227	334,651	164,063
313,822	0,376	334,352	164,065
314,837	0,333	334,078	163,868
315,852	0,325	333,961	163,787
316,866	0,426	333,697	163,754
317,881	0,146	333,616	163,393
318,895	0,305	333,260	163,378
319,910	0,213	332,976	163,124
320,925	0,402	332,683	163,173
321,939	0,265	332,579	162,958
322,954	0,375	332,439	162,994
323,968	0,177	332,225	162,659
324,983	0,258	331,896	162,572
325,997	0,096	331,818	162,343
327,012	0,228	331,453	162,294
328,027	0,161	331,407	162,183
329,041	0,299	331,158	162,196
330,056	0,171	330,887	161,911
331,070	0,265	330,810	161,960
332,085	0,466	330,665	162,092
333,100	0,850	330,430	162,377
334,114	0,833	330,276	162,269
335,129	0,774	330,036	162,073
336,143	0,872	329,867	162,081
337,158	0,843	329,749	161,977
338,173	0,985	329,470	161,978
339,187	0,896	329,313	161,791
340,202	0,985	329,069	161,753
341,216	1,037	328,806	161,664
342,231	0,966	328,593	161,470
343,246	1,073	328,356	161,452
344,260	1,013	328,270	161,333
345,275	1,025	327,998	161,197
346,289	1,054	327,845	161,138
347,304	0,923	327,525	160,826
348,319	0,947	327,351	160,753
349,333	1,004	327,050	160,651
350,348	0,767	326,976	160,348
351,362	0,898	326,649	160,313
352,377	0,851	326,339	160,096
353,392	0,735	326,146	159,864
354,406	0,670	325,956	159,688
355,421	197,184	1345,187	1411,438
356,435	161,103	1469,502	1411,600
