DTS Sentinel unit serial number:	SN410029Multiplexer serial number:	ORYXHardware model number:	OX2-SRSoftware version number:	ORYX F/W v4,00 Oryx Data Collector v3.7.2.0data status	okinstallation	BH3 CH2differential loss correction	single-endedforward channel	channel 2reverse channel	N/Adate	2023/12/06time	06:47:28forward acquisition time	300,00reverse acquisition time	0,00gamma	499,1914k internal	0,3197k external	0,3197temperature offset calibration	1,0000default loss term (dB/km)	0,3820temperature slope calibration	1,0000multiplexer offset coefficient	1,0000multiplexer slope coefficient	1,0000fibre end	0,00T internal ref (°C)	8,88T ext. ref 1 (°C)	-5,79T ext. ref 2 (°C)	-5,90length (m)	temperature (°C)	Stokes	anti-Stokes-744,400	140,817	-0,094	-0,091
-743,385	-56,459	-0,248	0,080
-742,371	-100,218	0,136	-0,024
-741,356	-74,700	-0,255	0,066
-740,342	58,829	-0,151	-0,108
-739,327	89,763	-0,170	0,138
-738,312	-200,000	-0,016	-0,117
-737,298	-28,326	-0,207	0,087
-736,283	100,378	-0,046	-0,039
-735,269	-117,289	-0,207	-0,027
-734,254	-200,000	-0,013	-0,091
-733,239	26,933	-0,343	-0,209
-732,225	800,000	0,042	-0,122
-731,210	800,000	0,036	0,072
-730,196	-46,751	-0,049	0,017
-729,181	-73,895	-0,023	0,006
-728,167	57,986	-0,139	-0,099
-727,152	7,752	0,052	0,028
-726,137	11,883	-0,044	0,024
-725,123	241,919	-0,107	-0,130
-724,108	243,334	-0,111	-0,135
-723,094	-200,000	-0,014	-0,057
-722,079	12,175	-0,057	-0,032
-721,064	113,506	-0,091	-0,081
-720,050	135,823	0,142	-0,135
-719,035	-138,599	0,064	0,005
-718,021	431,908	-0,070	-0,111
-717,006	-109,123	-0,092	-0,014
-715,991	-57,315	-0,106	0,034
-714,977	-57,456	0,113	-0,036
-713,962	-36,458	-0,113	0,044
-712,948	-12,024	0,139	-0,066
-711,933	702,814	0,021	0,040
-710,918	351,378	-0,030	0,043
-709,904	34,423	-0,103	0,065
-708,889	800,000	-0,073	-0,172
-707,875	28,194	-0,099	-0,061
-706,860	-104,821	-0,076	-0,013
-705,845	-200,000	-0,003	0,057
-704,831	-200,000	0,002	-0,016
-703,816	800,000	-0,019	0,041
-702,802	-81,338	-0,052	0,012
-701,787	-200,000	0,004	-0,173
-700,772	-69,277	0,046	0,013
-699,758	800,000	-0,050	0,109
-698,743	176,585	0,065	0,069
-697,729	-156,429	0,158	-0,007
-696,714	-112,529	0,079	0,011
-695,699	183,544	0,037	-0,040
-694,685	800,000	0,007	0,020
-693,670	-200,000	0,009	0,033
-692,656	316,915	-0,026	0,036
-691,641	64,153	0,055	0,040
-690,627	800,000	0,022	-0,063
-689,612	-200,000	-0,017	0,121
-688,597	133,602	-0,051	0,048
-687,583	20,340	0,031	0,018
-686,568	-64,767	-0,100	0,029
-685,554	-200,000	0,049	-0,164
-684,539	-42,814	0,155	0,057
-683,524	800,000	0,029	-0,060
-682,510	-68,111	-0,116	-0,033
-681,495	800,000	0,026	0,073
-680,481	385,561	-0,042	-0,063
-679,466	-37,392	-0,042	-0,016
-678,451	800,000	-0,040	-0,092
-677,437	800,000	0,040	-0,095
-676,422	-60,597	-0,207	-0,064
-675,408	-200,000	-0,025	0,102
-674,393	-200,000	0,005	-0,083
-673,378	184,519	-0,074	0,080
-672,364	253,142	-0,066	-0,082
-671,349	124,828	-0,067	0,061
-670,335	110,763	-0,043	-0,038
-669,320	-200,000	-0,017	0,120
-668,305	-6,820	-0,031	0,015
-667,291	-200,000	0,004	0,047
-666,276	274,721	0,166	-0,214
-665,262	-47,863	-0,153	-0,053
-664,247	-113,145	0,067	-0,010
-663,232	800,000	0,011	-0,030
-662,218	-136,834	0,141	-0,012
-661,203	310,497	0,074	0,101
-660,189	-91,982	-0,106	0,022
-659,174	-111,766	-0,092	-0,013
-658,159	-200,000	-0,021	-0,070
-657,145	-19,132	-0,197	-0,089
-656,130	800,000	0,055	-0,120
-655,116	158,464	-0,012	0,012
-654,101	131,062	-0,040	0,037
-653,086	-200,000	0,021	-0,079
-652,072	-200,000	0,041	-0,161
-651,057	93,690	-0,052	-0,043
-650,043	-200,000	-0,010	-0,213
-649,028	64,062	-0,098	0,071
-648,014	174,430	-0,052	-0,055
-646,999	-67,498	-0,090	0,025
-645,984	-12,584	-0,080	-0,038
-644,970	351,000	0,068	0,098
-643,955	82,448	-0,092	0,073
-642,941	252,215	-0,065	-0,081
-641,926	-200,000	0,016	-0,100
-640,911	-88,571	0,103	-0,022
-639,897	800,000	0,007	-0,018
-638,882	653,401	0,056	-0,104
-637,868	-73,423	-0,106	-0,028
-636,853	249,006	0,031	-0,039
-635,838	800,000	-0,024	-0,057
-634,824	-200,000	-0,005	-0,060
-633,809	125,375	-0,083	0,076
-632,795	-200,000	-0,016	0,151
-631,780	418,388	0,047	0,073
-630,765	2,316	0,053	-0,028
-629,751	800,000	-0,032	-0,081
-628,736	69,476	-0,113	-0,084
-627,722	-90,993	-0,137	-0,028
-626,707	351,134	0,047	0,068
-625,692	48,289	-0,061	-0,041
-624,678	-33,314	0,039	0,016
-623,663	281,684	-0,041	-0,053
-622,649	48,565	0,135	-0,092
-621,634	-121,892	-0,030	0,004
-620,619	-35,520	0,121	0,047
-619,605	-119,788	-0,057	0,007
-618,590	800,000	-0,040	0,106
-617,576	-1,062	-0,087	0,044
-616,561	212,715	0,098	0,112
-615,546	-200,000	-0,005	-0,043
-614,532	-13,098	-0,029	0,013
-613,517	-200,000	0,012	-0,060
-612,503	800,000	-0,006	-0,014
-611,488	20,248	-0,011	-0,007
-610,474	800,000	0,047	-0,137
-609,459	-37,959	-0,070	0,027
-608,444	163,264	-0,054	-0,055
-607,430	-34,805	-0,061	-0,024
-606,415	-77,396	-0,072	-0,018
-605,401	-200,000	0,037	0,126
-604,386	-80,781	-0,055	0,013
-603,371	800,000	0,032	0,076
-602,357	-24,436	0,102	0,044
-601,342	-200,000	-0,005	-0,100
-600,328	311,467	-0,124	-0,169
-599,313	-200,000	0,006	-0,020
-598,298	-68,686	0,069	-0,019
-597,284	166,641	-0,080	-0,082
-596,269	598,683	-0,044	-0,079
-595,255	-200,000	-0,017	-0,093
-594,240	-83,164	0,163	0,038
-593,225	301,863	0,059	-0,079
-592,211	-200,000	0,004	-0,075
-591,196	361,052	-0,107	0,155
-590,182	-119,095	0,113	0,014
-589,167	-200,000	-0,033	0,121
-588,152	725,218	0,094	-0,182
-587,138	-102,406	0,135	-0,023
-586,123	800,000	0,089	-0,246
-585,109	800,000	-0,045	0,096
-584,094	-100,076	-0,170	-0,030
-583,079	-18,176	0,108	-0,049
-582,065	800,000	-0,010	0,031
-581,050	800,000	0,008	0,017
-580,036	-200,000	-0,007	-0,151
-579,021	-4,867	-0,113	-0,056
-578,006	770,463	0,042	-0,084
-576,992	-46,849	-0,033	0,012
-575,977	-40,979	0,055	0,020
-574,963	104,648	-0,059	0,051
-573,948	-142,734	0,146	0,010
-572,934	307,122	-0,071	-0,095
-571,919	69,925	0,025	-0,018
-570,904	-73,496	-0,058	0,015
-569,890	281,368	0,050	-0,065
-568,875	282,515	-0,002	-0,002
-567,861	-200,000	-0,002	-0,006
-566,846	56,047	0,089	-0,062
-565,831	800,000	0,025	0,064
-564,817	71,694	-0,121	-0,091
-563,802	284,085	-0,012	-0,015
-562,788	38,944	-0,073	-0,047
-561,773	800,000	-0,036	-0,078
-560,758	252,555	0,099	0,122
-559,744	196,793	-0,079	-0,087
-558,729	328,954	0,034	0,047
-557,715	56,269	-0,162	0,113
-556,700	-102,633	-0,091	0,016
-555,685	-200,000	0,009	0,087
-554,671	-47,955	-0,080	-0,028
-553,656	202,796	0,040	0,045
-552,642	162,791	0,034	0,034
-551,627	800,000	0,018	-0,053
-550,612	-200,000	0,004	-0,025
-549,598	48,466	0,078	-0,052
-548,583	-180,734	-0,040	-0,001
-547,569	7,574	-0,040	0,021
-546,554	577,856	-0,026	0,045
-545,539	37,595	0,104	0,066
-544,525	146,046	0,036	0,035
-543,510	26,294	-0,130	-0,078
-542,496	27,124	-0,118	-0,071
-541,481	-200,000	-0,021	-0,104
-540,466	58,120	-0,132	-0,093
-539,452	195,376	0,036	0,039
-538,437	800,000	0,036	0,104
-537,423	626,826	0,041	0,074
-536,408	-55,396	0,093	0,030
-535,393	-200,000	0,004	-0,045
-534,379	800,000	0,019	-0,057
-533,364	122,491	0,033	0,029
-532,350	-29,894	-0,093	0,038
-531,335	-112,751	0,021	-0,003
-530,321	-61,892	0,180	-0,054
-529,306	-115,401	-0,095	0,013
-528,291	45,097	-0,090	-0,060
-527,277	800,000	-0,041	-0,108
-526,262	290,786	0,051	-0,068
-525,248	172,468	0,075	0,078
-524,233	-32,676	-0,105	0,042
-523,218	-90,842	0,149	0,031
-522,204	6,925	0,053	-0,029
-521,189	-103,463	-0,103	0,017
-520,175	-200,000	0,002	-0,047
-519,160	14,857	-0,052	-0,029
-518,145	-113,740	0,087	0,012
-517,131	800,000	0,022	0,054
-516,116	-97,798	0,046	-0,009
-515,102	266,996	-0,055	-0,069
-514,087	263,990	0,053	-0,067
-513,072	-200,000	0,020	-0,068
-512,058	-58,518	-0,041	-0,013
-511,043	55,169	0,046	0,032
-510,029	459,098	-0,060	0,096
-509,014	42,784	-0,096	-0,063
-507,999	-200,000	-0,018	0,094
-506,985	190,138	0,065	-0,071
-505,970	263,035	-0,108	-0,136
-504,956	712,596	-0,036	-0,068
-503,941	-200,000	0,016	-0,079
-502,926	167,288	0,097	0,099
-501,912	508,384	0,040	0,068
-500,897	117,290	-0,061	-0,054
-499,883	-200,000	-0,011	-0,248
-498,868	234,774	-0,041	0,049
-497,853	-200,000	-0,020	-0,066
-496,839	-200,000	0,010	-0,051
-495,824	800,000	0,068	0,150
-494,810	504,119	-0,020	0,034
-493,795	800,000	-0,019	-0,051
-492,781	75,500	-0,122	0,093
-491,766	800,000	0,058	-0,125
-490,751	-200,000	0,004	-0,014
-489,737	-70,137	-0,094	0,026
-488,722	-131,433	0,198	0,019
-487,708	-200,000	0,000	0,081
-486,693	607,138	0,031	-0,056
-485,678	107,273	-0,085	0,073
-484,664	140,342	-0,110	0,104
-483,649	-200,000	-0,001	-0,049
-482,635	-75,425	0,072	0,018
-481,620	800,000	-0,032	0,079
-480,605	800,000	0,070	0,154
-479,591	-145,021	0,066	-0,004
-478,576	379,314	0,049	-0,073
-477,562	174,473	-0,068	-0,071
-476,547	172,616	-0,145	-0,151
-475,532	502,048	0,088	-0,148
-474,518	-20,670	-0,137	-0,060
-473,503	-200,000	-0,013	0,047
-472,489	800,000	0,047	-0,111
-471,474	-86,507	-0,016	0,004
-470,459	-200,000	0,009	0,135
-469,445	52,562	0,024	0,016
-468,430	-200,000	-0,010	-0,049
-467,416	800,000	0,011	-0,031
-466,401	-98,656	0,094	-0,017
-465,386	-200,000	0,024	-0,155
-464,372	543,593	0,006	-0,011
-463,357	440,068	-0,034	-0,054
-462,343	-200,000	-0,002	-0,035
-461,328	-200,000	-0,002	-0,094
-460,313	79,058	0,082	-0,063
-459,299	-79,452	-0,007	0,002
-458,284	-129,905	-0,040	-0,004
-457,270	-200,000	0,003	0,011
-456,255	170,863	-0,059	0,061
-455,241	-116,772	0,156	0,020
-454,226	-200,000	0,006	-0,091
-453,211	-137,541	0,048	-0,004
-452,197	27,302	0,078	0,047
-451,182	115,498	0,048	-0,042
-450,168	154,985	-0,041	-0,041
-449,153	-200,000	0,009	0,226
-448,138	72,600	-0,082	-0,061
-447,124	800,000	0,034	-0,072
-446,109	-200,000	-0,005	-0,025
-445,095	-166,064	0,213	-0,006
-444,080	800,000	-0,053	0,153
-443,065	800,000	0,015	0,046
-442,051	72,729	-0,109	-0,082
-441,036	-47,961	-0,045	0,016
-440,022	-200,000	0,005	-0,019
-439,007	161,813	0,018	-0,018
-437,992	-60,681	0,150	0,045
-436,978	64,806	0,076	-0,055
-435,963	232,520	-0,063	0,074
-434,949	-200,000	0,016	-0,053
-433,934	371,315	-0,032	-0,046
-432,919	120,559	0,094	-0,084
-431,905	-200,000	0,002	0,031
-430,890	244,731	-0,098	0,119
-429,876	-128,127	0,164	-0,017
-428,861	-200,000	0,017	-0,099
-427,846	800,000	0,030	-0,090
-426,832	239,449	0,069	-0,083
-425,817	23,502	-0,040	-0,024
-424,803	-91,349	-0,048	-0,010
-423,788	-200,000	-0,002	0,089
-422,773	188,738	0,023	0,025
-421,759	-200,000	-0,010	-0,101
-420,744	159,418	-0,058	0,058
-419,730	-134,469	-0,131	-0,011
-418,715	-37,961	0,079	-0,030
-417,701	-160,450	0,051	0,002
-416,686	-200,000	0,018	0,101
-415,671	265,708	-0,061	0,077
-414,657	-62,638	-0,077	0,023
-413,642	-200,000	-0,037	0,135
-412,628	800,000	-0,038	0,098
-411,613	448,072	-0,027	0,043
-410,598	-200,000	-0,015	0,125
-409,584	-200,000	0,047	0,225
-408,569	-153,501	0,116	0,006
-407,555	-48,197	0,078	0,027
-406,540	-200,000	-0,018	0,144
-405,525	-159,018	0,091	0,004
-404,511	-134,946	-0,102	0,009
-403,496	-155,055	-0,079	0,004
-402,482	-111,673	0,035	0,005
-401,467	-200,000	0,018	0,061
-400,452	-3,651	-0,129	0,064
-399,438	-200,000	-0,005	-0,069
-398,423	-63,811	0,034	-0,010
-397,409	-200,000	-0,010	0,078
-396,394	-200,000	0,015	0,055
-395,379	800,000	-0,029	-0,069
-394,365	800,000	-0,016	0,033
-393,350	-200,000	-0,011	0,118
-392,336	-200,000	-0,026	0,091
-391,321	-200,000	0,023	0,129
-390,306	800,000	0,049	-0,143
-389,292	-200,000	-0,007	0,060
-388,277	-58,640	-0,113	-0,035
-387,263	-108,912	0,092	0,014
-386,248	215,187	0,100	0,115
-385,233	90,361	-0,097	0,077
-384,219	348,100	0,016	0,022
-383,204	75,706	-0,080	0,061
-382,190	-200,000	-0,008	-0,055
-381,175	-64,747	0,046	-0,013
-380,160	-55,886	0,049	-0,015
-379,146	-200,000	0,014	0,147
-378,131	151,279	0,083	0,081
-377,117	22,933	-0,132	0,078
-376,102	-200,000	0,002	-0,039
-375,088	-161,437	-0,063	-0,002
-374,073	-200,000	0,002	-0,020
-373,058	-140,808	0,034	0,002
-372,044	-20,070	0,081	-0,036
-371,029	-200,000	0,010	0,105
-370,015	-200,000	-0,013	-0,069
-369,000	-77,526	-0,140	0,035
-367,985	162,980	-0,071	0,072
-366,971	-83,710	0,096	0,022
-365,956	-60,332	-0,053	-0,016
-364,942	-200,000	-0,016	0,112
-363,927	-14,489	-0,036	0,016
-362,912	533,992	-0,042	-0,071
-361,898	427,650	-0,029	0,046
-360,883	-73,910	-0,032	-0,008
-359,869	800,000	-0,019	-0,058
-358,854	-200,000	-0,006	0,061
-357,839	20,052	0,083	0,048
-356,825	-200,000	-0,007	0,044
-355,810	-7,835	0,105	-0,051
-354,796	150,506	0,065	0,064
-353,781	-51,617	-0,050	0,016
-352,766	-200,000	-0,005	0,080
-351,752	306,035	0,058	-0,078
-350,737	-103,897	-0,071	-0,012
-349,723	-86,918	-0,079	0,017
-348,708	800,000	0,033	0,083
-347,693	585,663	0,055	0,098
-346,679	800,000	-0,076	-0,182
-345,664	-58,461	0,030	-0,009
-344,650	-200,000	0,012	0,059
-343,635	-86,863	0,097	0,021
-342,620	-63,074	-0,105	0,031
-341,606	-193,749	0,097	-0,001
-340,591	389,083	0,024	0,035
-339,577	-59,388	-0,160	0,049
-338,562	432,182	0,081	-0,127
-337,548	-11,585	-0,031	-0,014
-336,533	-200,000	0,017	0,083
-335,518	-47,549	0,082	-0,028
-334,504	-3,640	0,083	0,041
-333,489	73,043	-0,064	0,048
-332,475	-163,300	-0,083	0,003
-331,460	18,644	-0,150	-0,086
-330,445	-10,620	0,034	0,016
-329,431	214,686	-0,075	0,085
-328,416	48,893	0,132	0,089
-327,402	115,986	0,091	-0,080
-326,387	-44,614	-0,034	0,012
-325,372	800,000	-0,049	-0,144
-324,358	166,480	-0,016	-0,016
-323,343	-43,500	0,101	0,036
-322,329	-200,000	-0,004	0,026
-321,314	38,735	0,051	-0,033
-320,299	-121,689	-0,108	0,013
-319,285	-118,175	0,108	0,014
-318,270	256,676	-0,032	0,039
-317,256	-200,000	0,003	0,102
-316,241	-28,007	-0,150	-0,062
-315,226	-72,920	-0,111	0,029
-314,212	40,619	0,024	0,015
-313,197	-158,058	0,058	-0,002
-312,183	124,565	0,040	0,036
-311,168	-178,053	0,035	-0,001
-310,153	-200,000	0,005	-0,089
-309,139	-45,014	0,082	-0,029
-308,124	800,000	0,049	0,133
-307,110	17,451	-0,070	-0,039
-306,095	-47,125	0,051	-0,018
-305,080	197,848	0,061	-0,066
-304,066	-151,236	0,049	0,003
-303,051	-55,885	-0,110	-0,035
-302,037	-200,000	0,050	-0,159
-301,022	-200,000	-0,013	-0,061
-300,008	269,174	0,055	0,070
-298,993	42,689	0,024	0,016
-297,978	-200,000	0,006	0,158
-296,964	-200,000	0,014	0,075
-295,949	-200,000	0,001	-0,052
-294,935	81,728	0,061	0,047
-293,920	109,685	0,009	-0,008
-292,905	-200,000	-0,003	0,025
-291,891	35,841	-0,068	0,043
-290,876	800,000	0,073	0,186
-289,862	800,000	-0,063	0,149
-288,847	-139,300	-0,180	-0,014
-287,832	59,681	0,045	-0,032
-286,818	800,000	-0,039	-0,124
-285,803	172,914	0,087	-0,090
-284,789	-99,666	0,116	-0,021
-283,774	-26,049	-0,074	-0,031
-282,759	-200,000	0,016	0,058
-281,745	8,172	0,078	0,042
-280,730	-95,818	0,043	0,008
-279,716	-7,401	-0,069	0,033
-278,701	800,000	-0,004	0,010
-277,686	609,974	-0,050	0,089
-276,672	-65,006	0,054	0,016
-275,657	-14,754	-0,118	-0,054
-274,643	-200,000	0,014	0,077
-273,628	-99,397	-0,093	-0,017
-272,613	-200,000	0,033	-0,104
-271,599	115,699	0,078	-0,068
-270,584	133,386	0,127	0,118
-269,570	100,796	0,025	-0,021
-268,555	-200,000	-0,001	0,026
-267,540	-3,128	0,010	0,005
-266,526	-102,479	0,120	-0,020
-265,511	471,528	0,029	-0,046
-264,497	86,349	0,082	0,064
-263,482	220,243	-0,120	0,137
-262,467	259,333	0,102	0,126
-261,453	-200,000	-0,015	0,080
-260,438	-200,000	0,027	0,089
-259,424	478,875	-0,123	-0,200
-258,409	589,421	0,051	-0,090
-257,395	-15,262	-0,052	0,024
-256,380	-200,000	-0,008	0,094
-255,365	487,134	0,069	0,113
-254,351	143,326	0,055	-0,052
-253,336	75,014	-0,061	-0,046
-252,322	-179,625	0,090	0,001
-251,307	800,000	-0,023	-0,047
-250,292	-200,000	-0,006	0,073
-249,278	241,839	-0,043	0,052
-248,263	-4,488	0,116	0,057
-247,249	-78,806	-0,145	-0,035
-246,234	43,149	-0,092	0,060
-245,219	390,963	0,056	0,084
-244,205	-9,146	-0,087	0,041
-243,190	-200,000	0,017	0,064
-242,176	147,023	0,064	0,062
-241,161	171,460	0,041	0,042
-240,146	120,015	-0,103	-0,091
-239,132	800,000	-0,019	0,041
-238,117	-61,687	-0,043	0,013
-237,103	-200,000	-0,008	0,030
-236,088	-200,000	0,025	-0,115
-235,073	800,000	-0,028	-0,058
-234,059	292,467	-0,014	0,018
-233,044	335,675	0,082	-0,114
-232,030	183,705	-0,142	0,150
-231,015	800,000	-0,052	-0,122
-230,000	80,237	0,077	-0,059
-228,986	800,000	-0,039	0,097
-227,971	-17,275	0,051	0,023
-226,957	-83,738	0,058	0,013
-225,942	773,084	-0,090	0,176
-224,927	56,200	-0,062	0,043
-223,913	800,000	0,059	0,123
-222,898	-200,000	0,015	0,055
-221,884	105,262	-0,085	-0,071
-220,869	657,133	-0,071	-0,131
-219,855	-200,000	0,012	-0,039
-218,840	11,471	-0,044	0,024
-217,825	-8,858	0,069	-0,033
-216,811	-200,000	-0,010	0,076
-215,796	800,000	0,054	-0,125
-214,782	-200,000	0,045	-0,141
-213,767	-200,000	-0,006	0,051
-212,752	86,886	-0,038	0,030
-211,738	-200,000	-0,001	0,096
-210,723	-200,000	0,014	-0,117
-209,709	380,235	0,073	-0,107
-208,694	800,000	-0,073	-0,148
-207,679	-106,059	-0,083	0,013
-206,665	-21,741	0,103	-0,045
-205,650	-141,732	0,122	0,009
-204,636	333,715	0,036	0,050
-203,621	-136,199	0,102	0,008
-202,606	526,123	-0,042	-0,072
-201,592	-98,064	-0,065	-0,012
-200,577	800,000	0,006	0,013
-199,563	-200,000	0,004	-0,071
-198,548	242,285	0,053	0,063
-197,533	-200,000	-0,037	-0,121
-196,519	-39,323	0,110	0,041
-195,504	-163,654	-0,137	0,005
-194,490	62,584	-0,094	-0,067
-193,475	-55,004	-0,063	0,020
-192,460	61,784	-0,103	-0,073
-191,446	13,215	0,037	-0,020
-190,431	-121,967	0,109	0,013
-189,417	-144,824	0,126	-0,008
-188,402	-40,289	-0,043	-0,016
-187,387	-156,040	-0,197	0,009
-186,373	52,662	0,093	-0,063
-185,358	12,729	0,100	0,055
-184,344	-200,000	-0,011	0,119
-183,329	275,847	0,114	0,144
-182,315	52,865	0,027	0,018
-181,300	-200,000	-0,036	0,146
-180,285	-24,176	-0,015	-0,006
-179,271	-200,000	-0,021	-0,138
-178,256	-200,000	-0,050	-0,158
-177,242	192,270	0,050	-0,054
-176,227	800,000	-0,032	0,074
-175,212	800,000	0,042	-0,130
-174,198	433,499	-0,074	-0,116
-173,183	-200,000	0,008	-0,066
-172,169	35,144	-0,089	-0,056
-171,154	800,000	-0,036	0,101
-170,139	-131,963	0,095	-0,009
-169,125	211,755	0,073	0,082
-168,110	46,853	0,105	0,070
-167,096	800,000	-0,039	-0,110
-166,081	-137,445	-0,043	0,003
-165,066	800,000	-0,034	-0,081
-164,052	-25,667	0,052	-0,022
-163,037	800,000	0,041	0,084
-162,023	5,195	0,187	-0,098
-161,008	214,319	0,099	-0,112
-159,993	59,638	0,086	0,060
-158,979	-107,494	-0,079	0,012
-157,964	103,490	-0,035	-0,029
-156,950	-68,397	-0,055	0,015
-155,935	-200,000	0,001	0,051
-154,920	42,367	0,068	0,044
-153,906	510,916	0,052	-0,087
-152,891	-128,296	-0,179	0,018
-151,877	-59,747	0,069	0,021
-150,862	-189,864	-0,120	0,001
-149,847	800,000	-0,030	-0,063
-148,833	355,931	-0,040	0,057
-147,818	-200,000	0,019	0,137
-146,804	622,057	-0,039	-0,070
-145,789	279,490	0,076	-0,096
-144,775	-142,935	-0,127	0,009
-143,760	-148,375	-0,046	-0,003
-142,745	85,610	-0,030	-0,024
-141,731	-200,000	-0,029	0,133
-140,716	800,000	0,036	-0,097
-139,702	-64,824	-0,070	-0,020
-138,687	228,236	-0,045	0,052
-137,672	-13,727	0,050	-0,023
-136,658	40,212	0,124	0,079
-135,643	-21,976	-0,033	0,014
-134,629	293,586	0,055	-0,072
-133,614	-14,736	0,200	0,091
-132,599	-80,582	0,090	0,021
-131,585	19,723	-0,064	0,036
-130,570	-200,000	0,007	-0,034
-129,556	-194,737	-0,045	-0,000
-128,541	368,331	-0,047	-0,067
-127,526	-200,000	-0,001	0,097
-126,512	186,776	0,099	0,104
-125,497	16,606	0,050	-0,028
-124,483	-200,000	-0,005	0,059
-123,468	9,609	0,118	0,063
-122,453	247,450	0,048	-0,057
-121,439	-200,000	-0,004	-0,090
-120,424	-110,730	-0,079	0,012
-119,410	81,343	-0,008	-0,006
-118,395	158,643	0,104	0,103
-117,380	4,139	-0,098	0,051
-116,366	800,000	0,012	-0,026
-115,351	176,312	-0,071	0,074
-114,337	800,000	0,039	-0,119
-113,322	515,895	0,043	-0,071
-112,307	800,000	0,014	0,032
-111,293	11,754	0,099	0,054
-110,278	-200,000	-0,010	-0,096
-109,264	-200,000	0,006	-0,037
-108,249	-128,215	-0,070	0,007
-107,234	13,050	-0,025	0,014
-106,220	-156,300	0,090	-0,004
-105,205	-200,000	0,035	0,172
-104,191	-120,550	0,048	-0,006
-103,176	66,396	-0,087	0,063
-102,162	800,000	0,043	-0,088
-101,147	-200,000	0,034	-0,108
-100,132	36,373	-0,115	0,072
-99,118	-71,562	-0,046	0,012
-98,103	51,002	-0,053	0,036
-97,089	58,013	-0,062	0,043
-96,074	-200,000	0,014	0,128
-95,059	686,454	0,074	0,137
-94,045	372,626	-0,097	0,141
-93,030	-200,000	-0,026	-0,122
-92,016	-176,707	-0,083	0,001
-91,001	-1,999	-0,085	0,042
-89,986	-142,477	0,083	0,006
-88,972	-44,441	0,050	-0,018
-87,957	-41,449	0,047	-0,017
-86,943	800,000	-0,009	-0,017
-85,928	-200,000	0,039	-0,129
-84,913	-193,954	-0,080	-0,000
-83,899	-200,000	-0,012	0,048
-82,884	-200,000	-0,000	0,144
-81,870	800,000	0,027	-0,056
-80,855	148,097	-0,037	-0,036
-79,840	141,210	0,050	0,047
-78,826	-200,000	-0,008	-0,033
-77,811	800,000	0,042	-0,104
-76,797	-138,641	-0,098	0,008
-75,782	-8,817	0,116	-0,055
-74,767	266,916	-0,050	0,062
-73,753	-200,000	0,028	0,137
-72,738	800,000	-0,007	-0,020
-71,724	-44,169	0,225	0,080
-70,709	182,287	-0,038	-0,040
-69,694	18,390	0,002	0,001
-68,680	102,610	0,054	0,045
-67,665	-72,417	0,109	0,028
-66,651	776,419	-0,007	-0,014
-65,636	584,897	-0,092	0,161
-64,622	64,211	0,137	-0,098
-63,607	-48,191	-0,061	-0,021
-62,592	316,050	0,032	-0,043
-61,578	123,335	-0,072	-0,064
-60,563	-200,000	0,128	0,000
-59,549	-20,657	-0,062	0,027
-58,534	64,702	-2,442	-1,744
-57,519	800,000	-0,394	-1,091
-56,505	-200,000	-1,029	-4,829
-55,490	377,325	0,991	1,440
-54,476	800,000	5,470	12,139
-53,461	-200,000	22,257	341,529
-52,446	800,000	762,998	2295,164
-51,432	522,963	1656,724	2769,056
-50,417	67,635	1663,364	1202,825
-49,403	15,746	1582,355	879,507
-48,388	10,527	1535,435	826,694
-47,373	18,063	1528,896	861,490
-46,359	13,636	1517,826	832,886
-45,344	9,046	1513,370	807,227
-44,330	8,906	1511,619	805,553
-43,315	8,884	1509,943	804,517
-42,300	8,861	1508,045	803,357
-41,286	8,896	1506,390	802,622
-40,271	8,937	1504,668	801,875
-39,257	8,911	1503,411	801,042
-38,242	8,908	1502,061	800,276
-37,227	8,894	1500,918	799,568
-36,213	8,904	1499,332	798,740
-35,198	8,847	1498,151	797,792
-34,184	8,943	1496,701	797,472
-33,169	8,893	1495,325	796,458
-32,154	8,909	1493,968	795,781
-31,140	8,975	1492,327	795,203
-30,125	8,942	1491,220	794,418
-29,111	8,991	1489,627	793,783
-28,096	8,971	1488,654	793,134
-27,082	8,927	1487,751	792,404
-26,067	8,912	1486,614	791,691
-25,052	8,931	1485,410	791,113
-24,038	8,886	1484,362	790,298
-23,023	8,875	1483,396	789,698
-22,009	8,907	1482,289	789,238
-20,994	8,921	1481,274	788,734
-19,979	8,920	1480,071	788,058
-18,965	8,910	1479,017	787,417
-17,950	8,906	1478,326	786,998
-16,936	8,828	1477,273	786,019
-15,921	8,842	1475,936	785,346
-14,906	8,814	1474,783	784,563
-13,892	8,792	1473,948	783,982
-12,877	8,809	1472,996	783,524
-11,863	8,745	1472,042	782,671
-10,848	8,790	1471,057	782,338
-9,833	8,907	1470,045	782,347
-8,819	8,871	1469,363	781,775
-7,804	8,819	1468,083	780,809
-6,790	8,870	1467,210	780,564
-5,775	8,843	1466,530	780,036
-4,760	8,824	1465,557	779,396
-3,746	8,824	1464,278	778,686
-2,731	8,724	1463,134	777,556
-1,717	8,628	1462,644	776,795
-0,702	8,680	1461,341	776,327
0,313	8,507	1460,078	775,983
1,327	11,830	1455,954	789,878
2,342	20,712	1207,692	690,754
3,356	15,766	671,145	372,835
4,371	-13,235	454,022	207,975
5,386	-16,192	427,782	191,654
6,400	-16,423	419,354	187,534
7,415	-15,473	415,848	187,288
8,429	-16,509	413,149	184,606
9,444	-16,343	411,554	184,109
10,459	-16,535	410,766	183,472
11,473	-16,383	409,700	183,191
12,488	-16,344	408,648	182,758
13,502	-16,404	408,012	182,375
14,517	-16,479	407,287	181,931
15,531	-16,449	406,476	181,593
16,546	-16,412	405,877	181,360
17,561	-16,437	405,306	181,055
18,575	-16,447	404,644	180,729
19,590	-16,522	404,051	180,346
20,604	-16,364	403,623	180,355
21,619	-16,455	403,033	179,950
22,634	-16,479	402,466	179,649
23,648	-16,646	402,021	179,207
24,663	-16,501	401,499	179,155
25,677	-16,471	400,971	178,944
26,692	-16,533	400,793	178,765
27,707	-16,341	400,182	178,737
28,721	-16,434	399,902	178,469
29,736	-16,378	399,316	178,268
30,750	-16,526	399,021	177,921
31,765	-16,467	398,570	177,783
32,780	-16,419	398,097	177,621
33,794	-16,462	397,777	177,404
34,809	-16,361	397,326	177,323
35,823	-16,577	397,026	176,883
36,838	-16,370	396,475	176,900
37,853	-16,544	396,115	176,490
38,867	-16,303	395,620	176,576
39,882	-16,413	395,328	176,283
40,896	-16,367	394,947	176,158
41,911	-16,397	394,626	175,961
42,926	-16,473	394,284	175,691
43,940	-16,362	393,774	175,595
44,955	-16,399	393,448	175,385
45,969	-16,332	393,013	175,264
46,984	-16,287	392,810	175,217
47,999	-16,325	392,583	175,051
49,013	-16,327	392,226	174,874
50,028	-16,372	391,779	174,599
51,042	-16,476	391,536	174,338
52,057	-16,478	390,949	174,058
53,071	-16,326	390,836	174,193
54,086	-16,303	390,374	174,002
55,101	-16,479	390,134	173,648
56,115	-16,444	389,802	173,531
57,130	-16,359	389,249	173,381
58,144	-16,353	388,726	173,139
59,159	-16,387	388,328	172,903
60,174	-16,490	388,054	172,630
61,188	-16,419	387,655	172,529
62,203	-16,335	387,330	172,479
63,217	-16,458	387,059	172,183
64,232	-16,398	386,766	172,116
65,247	-16,510	386,432	171,805
66,261	-16,335	385,920	171,791
67,276	-16,479	385,744	171,509
68,290	-16,403	385,425	171,451
69,305	-16,385	385,182	171,351
70,320	-16,329	384,780	171,229
71,334	-16,307	384,162	170,968
72,349	-16,393	384,048	170,791
73,363	-16,352	383,694	170,671
74,378	-16,449	383,377	170,390
75,393	-16,289	382,899	170,368
76,407	-16,429	382,623	170,050
77,422	-16,291	382,388	170,108
78,436	-16,340	381,783	169,761
79,451	-16,355	381,593	169,641
80,466	-16,351	381,341	169,520
81,480	-16,322	380,947	169,367
82,495	-16,355	380,610	169,160
83,509	-16,338	380,524	169,128
84,524	-16,296	380,105	168,980
85,539	-16,349	379,732	168,732
86,553	-16,222	379,386	168,725
87,568	-16,313	379,031	168,437
88,582	-16,270	378,768	168,358
89,597	-16,274	378,450	168,197
90,611	-16,216	378,075	168,090
91,626	-16,377	377,927	167,804
92,641	-16,319	377,715	167,769
93,655	-16,279	377,290	167,616
94,670	-16,384	376,918	167,302
95,684	-16,288	376,817	167,364
96,699	-16,511	376,260	166,821
97,714	-16,369	376,087	166,908
98,728	-16,239	375,703	166,887
99,743	-16,358	375,481	166,623
100,757	-16,234	374,996	166,549
101,772	-16,304	374,829	166,372
102,787	-16,325	374,567	166,215
103,801	-16,524	374,362	165,858
104,816	-16,342	373,938	165,884
105,830	-16,304	373,624	165,778
106,845	-16,301	373,286	165,617
107,860	-16,229	372,999	165,566
108,874	-16,286	372,666	165,331
109,889	-16,303	372,321	165,142
110,903	-16,292	372,079	165,033
111,918	-16,382	371,764	164,767
112,933	-16,338	371,528	164,702
113,947	-16,291	371,213	164,607
114,962	-16,291	371,036	164,514
115,976	-16,192	370,542	164,403
116,991	-16,197	370,195	164,228
118,006	-16,375	370,120	163,959
119,020	-16,276	369,887	163,964
120,035	-16,231	369,544	163,853
121,049	-16,294	369,258	163,634
122,064	-16,278	369,078	163,559
123,079	-16,316	368,794	163,372
124,093	-16,265	368,289	163,197
125,108	-16,314	368,103	163,040
126,122	-16,148	367,579	162,997
127,137	-16,048	367,342	163,000
128,151	-16,269	367,269	162,682
129,166	-16,154	366,801	162,602
130,181	-16,169	366,525	162,447
131,195	-16,285	366,142	162,120
132,210	-16,222	366,028	162,132
133,224	-16,125	365,473	161,990
134,239	-16,164	365,285	161,844
135,254	-16,129	365,049	161,769
136,268	-16,299	364,819	161,444
137,283	-16,123	364,529	161,516
138,297	-16,051	364,182	161,437
139,312	-16,252	363,813	161,014
140,327	-16,195	363,565	160,959
141,341	-16,406	363,030	160,451
142,356	-16,171	362,973	160,698
143,370	-12,816	365,183	165,759
144,385	-5,235	368,785	176,712
145,400	-1,613	370,308	181,891
146,414	-0,963	369,989	182,517
147,429	-0,928	369,996	182,548
148,443	-0,729	369,864	182,710
149,458	-0,470	369,557	182,861
150,473	-0,464	369,459	182,803
151,487	-0,405	369,136	182,700
152,502	-0,515	368,945	182,455
153,516	-0,474	368,613	182,323
154,531	-0,533	368,304	182,082
155,546	-0,495	368,106	182,015
156,560	-0,438	367,791	181,913
157,575	-0,331	367,537	181,901
158,589	-0,361	367,140	181,652
159,604	-0,400	367,028	181,533
160,619	-0,405	366,793	181,394
161,633	-0,236	366,529	181,453
162,648	-0,208	366,224	181,320
163,662	-0,283	365,995	181,099
164,677	-0,272	366,062	181,130
165,692	-0,192	365,522	180,944
166,706	-0,355	365,345	180,642
167,721	-0,442	364,968	180,334
168,735	-0,461	364,796	180,210
169,750	-0,421	364,468	180,080
170,764	-0,327	364,306	180,098
171,779	-0,465	364,116	179,822
172,794	-0,371	363,715	179,720
173,808	-0,514	363,601	179,476
174,823	-0,551	363,259	179,246
175,837	-0,625	363,046	179,037
176,852	-0,414	362,621	179,065
177,867	-0,545	362,537	178,849
178,881	-0,435	362,300	178,849
179,896	-0,562	362,066	178,565
180,910	-0,453	361,828	178,563
181,925	-0,523	361,467	178,284
182,940	-0,457	361,269	178,250
183,954	-0,380	360,880	178,134
184,969	-0,338	360,618	178,039
185,983	-0,415	360,490	177,868
186,998	-0,304	360,080	177,782
188,013	-0,327	359,971	177,684
189,027	-0,406	359,685	177,434
190,042	-0,418	359,460	177,293
191,056	-0,355	359,225	177,236
192,071	-0,238	358,942	177,219
193,086	-0,247	358,559	177,004
194,100	-0,275	358,378	176,865
195,115	-0,220	358,106	176,781
196,129	-0,299	357,805	176,522
197,144	-0,210	357,605	176,514
198,159	-0,382	357,565	176,275
199,173	-0,276	357,110	176,159
200,188	-0,112	356,773	176,172
201,202	-0,211	356,614	175,960
202,217	-0,292	356,414	175,751
203,232	-0,175	356,068	175,702
204,246	-0,260	355,979	175,543
205,261	-0,186	355,533	175,394
206,275	-0,310	355,372	175,153
207,290	-0,289	355,130	175,043
208,304	-0,283	354,812	174,877
209,319	-0,175	354,413	174,792
210,334	-0,194	354,230	174,663
211,348	-0,250	354,034	174,485
212,363	-0,130	353,859	174,524
213,377	-0,074	353,689	174,491
214,392	-0,129	353,432	174,284
215,407	-0,046	353,155	174,229
216,421	-0,196	353,075	173,999
217,436	-0,124	352,848	173,956
218,450	-0,025	352,391	173,830
219,465	-0,223	352,150	173,465
220,480	-0,037	352,040	173,611
221,494	-0,113	351,861	173,420
222,509	-0,149	351,754	173,310
223,523	-0,172	351,313	173,051
224,538	-0,044	350,979	173,019
225,553	-0,212	350,844	172,742
226,567	-0,093	350,676	172,782
227,582	-0,026	350,379	172,697
228,596	0,070	350,023	172,618
229,611	-0,089	349,951	172,382
230,626	-0,027	349,689	172,310
231,640	-0,061	349,576	172,199
232,655	-0,213	349,266	171,857
233,669	-0,089	348,935	171,821
234,684	-0,171	348,628	171,561
235,699	-0,167	348,532	171,503
236,713	-0,131	348,358	171,443
237,728	-0,006	348,075	171,431
238,742	0,003	347,677	171,231
239,757	0,005	347,539	171,149
240,772	-0,077	347,281	170,913
241,786	0,147	347,024	171,027
242,801	0,017	346,871	170,789
243,815	0,016	346,744	170,710
244,830	-0,036	346,448	170,489
245,844	0,065	346,239	170,487
246,859	-0,014	345,997	170,262
247,874	-0,018	345,582	170,038
248,888	-0,123	345,511	169,869
249,903	0,063	345,324	169,972
250,917	0,021	345,002	169,752
251,932	-0,058	344,890	169,592
252,947	0,080	344,553	169,567
253,961	0,117	344,420	169,528
254,976	0,032	344,095	169,258
255,990	0,025	343,984	169,180
257,005	-0,075	343,868	168,994
258,020	0,063	343,444	168,927
259,034	0,003	343,412	168,828
260,049	0,098	343,168	168,800
261,063	0,063	342,776	168,554
262,078	-0,019	342,520	168,320
263,093	0,079	342,315	168,314
264,107	0,102	342,023	168,182
265,122	0,040	341,987	168,079
266,136	0,130	341,678	168,014
267,151	0,005	341,480	167,762
268,166	0,015	341,340	167,688
269,180	0,007	341,119	167,556
270,195	0,127	340,738	167,488
271,209	0,258	340,530	167,518
272,224	0,106	340,381	167,259
273,239	0,125	340,161	167,158
274,253	0,163	339,997	167,104
275,268	0,099	339,692	166,868
276,282	0,267	339,520	166,957
277,297	0,142	339,254	166,671
278,312	0,174	339,146	166,639
279,326	0,383	338,629	166,603
280,341	0,191	338,470	166,296
281,355	0,266	338,335	166,299
282,370	0,233	338,211	166,186
283,384	0,033	337,957	165,824
284,399	0,160	337,689	165,819
285,414	0,128	337,500	165,675
286,428	0,194	337,285	165,629
287,443	0,292	337,080	165,622
288,457	0,222	336,796	165,390
289,472	0,160	336,696	165,258
290,487	0,211	336,282	165,096
291,501	0,085	336,317	164,959
292,516	0,092	335,886	164,740
293,530	0,144	335,689	164,687
294,545	0,275	335,466	164,707
295,560	0,324	335,350	164,689
296,574	0,314	335,010	164,496
297,589	0,290	334,890	164,396
298,603	0,189	334,676	164,166
299,618	0,252	334,436	164,103
300,633	0,159	334,110	163,826
301,647	0,238	334,004	163,846
302,662	0,212	333,945	163,774
303,676	0,111	333,752	163,555
304,691	0,120	333,468	163,410
305,706	0,132	333,212	163,283
306,720	0,056	332,950	163,058
307,735	0,301	332,781	163,227
308,749	0,209	332,581	163,015
309,764	0,148	332,288	162,791
310,779	0,130	332,029	162,629
311,793	0,302	331,675	162,628
312,808	0,096	331,558	162,333
313,822	0,192	331,269	162,280
314,837	0,385	331,090	162,388
315,852	0,316	330,860	162,186
316,866	0,258	330,563	161,963
317,881	0,286	330,440	161,918
318,895	0,241	330,324	161,799
319,910	0,167	330,061	161,576
320,925	0,248	329,707	161,475
321,939	0,027	329,635	161,187
322,954	0,188	329,566	161,312
323,968	0,242	329,219	161,187
324,983	0,342	328,811	161,080
325,997	0,218	328,631	160,845
327,012	0,232	328,395	160,729
328,027	0,098	328,269	160,510
329,041	0,073	328,079	160,375
330,056	-0,034	328,007	160,211
331,070	0,123	327,754	160,241
332,085	0,557	327,526	160,580
333,100	0,561	327,426	160,521
334,114	0,656	327,130	160,463
335,129	0,671	327,083	160,442
336,143	0,872	326,761	160,484
337,158	0,780	326,616	160,300
338,173	0,779	326,369	160,164
339,187	0,742	326,289	160,071
340,202	0,900	326,002	160,084
341,216	0,884	325,834	159,971
342,231	0,808	325,541	159,732
343,246	0,723	325,434	159,574
344,260	0,703	325,219	159,434
345,275	0,625	325,062	159,259
346,289	0,751	324,893	159,296
347,304	0,778	324,434	159,085
348,319	0,591	324,332	158,823
349,333	0,873	324,072	158,980
350,348	0,704	323,884	158,695
351,362	0,635	323,581	158,459
352,377	0,618	323,429	158,352
353,392	0,546	323,293	158,197
354,406	0,476	322,920	157,926
355,421	195,679	1346,090	1406,962
356,435	159,720	1470,870	1407,118
