DTS Sentinel unit serial number:	SN410029Multiplexer serial number:	ORYXHardware model number:	OX2-SRSoftware version number:	ORYX F/W v4,00 Oryx Data Collector v3.7.2.0data status	okinstallation	B4 Nyhavnadifferential loss correction	single-endedforward channel	channel 2reverse channel	N/Adate	2023/12/15time	23:50:13forward acquisition time	300,00reverse acquisition time	0,00gamma	499,1914k internal	0,3128k external	0,3128temperature offset calibration	1,0000default loss term (dB/km)	0,3820temperature slope calibration	1,0000multiplexer offset coefficient	1,0000multiplexer slope coefficient	1,0000fibre end	0,00T internal ref (°C)	21,81T ext. ref 1 (°C)	6,72T ext. ref 2 (°C)	6,89length (m)	temperature (°C)	Stokes	anti-Stokes-744,400	-200,000	0,020	-0,189
-743,385	-190,083	-0,295	-0,002
-742,371	78,607	0,044	0,035
-741,356	-13,217	-0,180	0,087
-740,342	488,692	0,014	-0,024
-739,327	142,075	-0,117	0,116
-738,312	-79,038	-0,054	-0,014
-737,298	-93,273	-0,238	0,049
-736,283	-13,104	0,039	-0,019
-735,269	-35,891	-0,258	0,103
-734,254	-27,178	0,058	0,025
-733,239	-64,365	-0,272	0,082
-732,225	34,918	0,051	0,033
-731,210	-200,000	0,002	-0,033
-730,196	674,240	0,035	-0,067
-729,181	-44,276	-0,115	0,043
-728,167	411,207	-0,077	0,123
-727,152	90,379	0,085	0,070
-726,137	279,945	-0,097	-0,129
-725,123	374,281	-0,022	0,033
-724,108	101,260	-0,089	0,077
-723,094	643,178	0,043	-0,082
-722,079	-152,456	-0,201	-0,011
-721,064	61,616	-0,100	-0,074
-720,050	-114,561	0,108	0,015
-719,035	12,826	-0,090	0,051
-718,021	-200,000	0,002	0,025
-717,006	-200,000	-0,024	-0,097
-715,991	800,000	-0,087	-0,182
-714,977	315,097	0,056	-0,078
-713,962	-123,869	0,036	0,004
-712,948	14,561	-0,107	-0,062
-711,933	319,052	0,107	0,151
-710,918	-133,210	0,070	0,006
-709,904	800,000	0,005	-0,013
-708,889	-40,730	-0,184	0,070
-707,875	-200,000	-0,009	-0,097
-706,860	326,025	0,011	0,016
-705,845	183,590	0,066	0,073
-704,831	-200,000	-0,019	-0,077
-703,816	800,000	-0,033	-0,084
-702,802	136,497	0,056	-0,054
-701,787	-66,751	0,080	0,023
-700,772	-200,000	-0,022	-0,100
-699,758	-200,000	-0,013	0,053
-698,743	800,000	-0,011	-0,029
-697,729	-29,358	0,020	-0,009
-696,714	211,387	0,107	-0,125
-695,699	255,457	0,006	0,008
-694,685	53,290	-0,052	-0,037
-693,670	63,089	-0,130	-0,097
-692,656	-200,000	0,000	0,024
-691,641	21,303	-0,050	0,030
-690,627	-200,000	0,002	0,076
-689,612	800,000	-0,052	-0,163
-688,597	-200,000	-0,006	0,116
-687,583	800,000	-0,031	0,072
-686,568	-200,000	-0,003	-0,163
-685,554	330,789	0,016	-0,023
-684,539	800,000	-0,034	-0,093
-683,524	-60,428	-0,099	0,031
-682,510	-200,000	0,003	-0,091
-681,495	800,000	0,022	-0,068
-680,481	-200,000	-0,014	-0,136
-679,466	-200,000	-0,011	-0,047
-678,451	-200,000	-0,008	0,051
-677,437	-5,560	-0,064	0,033
-676,422	-77,540	0,204	0,052
-675,408	-196,006	0,125	-0,001
-674,393	276,180	-0,086	-0,114
-673,378	-153,130	0,108	0,006
-672,364	505,386	0,090	-0,156
-671,349	102,485	-0,099	0,086
-670,335	49,625	0,106	0,074
-669,320	226,828	0,028	0,034
-668,305	397,969	-0,048	-0,074
-667,291	106,414	0,074	-0,065
-666,276	34,166	-0,098	0,063
-665,262	-82,760	-0,006	0,002
-664,247	8,848	0,116	0,065
-663,232	-43,191	-0,145	-0,054
-662,218	-60,000	-0,091	-0,029
-661,203	108,475	-0,048	-0,042
-660,189	-200,000	0,024	0,091
-659,174	156,386	-0,052	0,053
-658,159	-49,700	-0,096	-0,034
-657,145	-200,000	-0,017	0,129
-656,130	427,838	-0,082	0,132
-655,116	-53,860	0,187	-0,063
-654,101	229,460	0,071	0,086
-653,086	-200,000	-0,024	0,160
-652,072	-22,701	-0,118	0,053
-651,057	800,000	0,034	-0,070
-650,043	151,579	0,044	-0,045
-649,028	-200,000	0,008	0,033
-648,014	-200,000	-0,022	-0,109
-646,999	578,923	0,057	-0,104
-645,984	-26,930	0,089	0,038
-644,970	205,477	-0,088	-0,102
-643,955	-200,000	-0,042	-0,163
-642,941	22,765	0,034	-0,021
-641,926	70,322	-0,104	-0,080
-640,911	800,000	-0,054	0,115
-639,897	800,000	0,018	0,054
-638,882	800,000	-0,045	-0,115
-637,868	-200,000	-0,011	-0,049
-636,853	82,181	0,074	0,060
-635,838	173,879	-0,046	-0,050
-634,824	-200,000	-0,006	0,059
-633,809	-194,427	0,111	0,001
-632,795	800,000	0,020	0,060
-631,780	-85,614	0,129	0,029
-630,765	-77,521	0,106	0,027
-629,751	-100,199	-0,168	-0,031
-628,736	26,010	-0,078	0,048
-627,722	-200,000	-0,001	0,041
-626,707	387,724	-0,058	0,090
-625,692	800,000	-0,036	0,091
-624,678	800,000	-0,015	-0,047
-623,663	800,000	0,019	-0,053
-622,649	178,390	-0,035	0,038
-621,634	79,129	-0,093	0,073
-620,619	79,594	-0,074	-0,059
-619,605	150,305	0,166	-0,167
-618,590	-58,084	-0,184	-0,059
-617,576	-9,029	0,116	0,057
-616,561	507,049	-0,062	0,107
-615,546	-119,263	-0,110	0,014
-614,532	-42,003	-0,161	-0,061
-613,517	-54,764	0,105	-0,035
-612,503	32,970	0,073	0,047
-611,488	-200,000	0,001	0,159
-610,474	602,790	-0,034	0,063
-609,459	-89,462	-0,090	0,019
-608,444	72,206	-0,052	0,040
-607,430	-38,149	-0,038	0,015
-606,415	-200,000	-0,016	-0,121
-605,401	306,687	-0,104	-0,144
-604,386	800,000	0,049	0,102
-603,371	800,000	0,024	0,055
-602,357	800,000	-0,052	0,138
-601,342	76,781	0,031	-0,025
-600,328	-200,000	0,003	-0,037
-599,313	800,000	-0,054	-0,162
-598,298	-4,744	-0,018	0,009
-597,284	263,816	-0,026	0,033
-596,269	800,000	0,016	-0,035
-595,255	281,289	0,028	-0,037
-594,240	243,256	0,067	-0,083
-593,225	126,981	-0,060	-0,056
-592,211	392,463	-0,109	-0,169
-591,196	800,000	-0,027	0,070
-590,182	-200,000	0,038	0,127
-589,167	800,000	-0,045	0,112
-588,152	86,979	0,102	-0,084
-587,138	27,191	-0,001	-0,001
-586,123	-111,861	0,032	-0,005
-585,109	229,679	-0,065	-0,078
-584,094	-200,000	0,001	0,045
-583,079	-200,000	0,033	0,133
-582,065	-101,873	0,110	0,020
-581,050	11,719	-0,083	0,047
-580,036	800,000	-0,044	0,129
-579,021	-97,151	0,127	0,024
-578,006	204,637	-0,041	-0,047
-576,992	199,124	0,091	-0,103
-575,977	-67,029	0,164	0,048
-574,963	267,738	0,060	0,077
-573,948	70,771	0,072	-0,055
-572,934	-66,311	0,086	-0,025
-571,919	-12,997	-0,088	0,042
-570,904	-200,000	-0,028	-0,099
-569,890	690,359	0,053	0,103
-568,875	-200,000	0,008	0,076
-567,861	-77,511	0,078	-0,020
-566,846	-200,000	0,007	0,049
-565,831	194,858	-0,072	-0,081
-564,817	-90,849	-0,037	-0,008
-563,802	-33,935	0,018	-0,007
-562,788	-11,222	0,032	0,016
-561,773	-106,128	0,015	0,002
-560,758	-200,000	0,011	-0,069
-559,744	-6,196	0,093	-0,047
-558,729	800,000	0,059	0,134
-557,715	-80,953	-0,088	0,021
-556,700	229,498	0,053	-0,063
-555,685	154,268	0,141	-0,143
-554,671	87,148	-0,038	0,031
-553,656	-200,000	0,035	0,127
-552,642	190,926	0,059	0,065
-551,627	43,117	-0,118	0,079
-550,612	-200,000	0,003	-0,048
-549,598	476,626	-0,061	-0,102
-548,583	301,027	0,035	-0,048
-547,569	-200,000	0,017	0,095
-546,554	206,350	0,046	0,053
-545,539	91,483	-0,070	0,058
-544,525	516,006	0,034	0,060
-543,510	47,831	-0,079	-0,054
-542,496	800,000	-0,107	-0,223
-541,481	800,000	-0,036	-0,092
-540,466	-117,056	-0,177	0,024
-539,452	45,864	0,022	-0,015
-538,437	288,088	0,077	0,103
-537,423	329,761	-0,112	0,160
-536,408	175,333	-0,103	0,110
-535,393	186,029	-0,067	-0,074
-534,379	95,387	0,074	0,062
-533,364	800,000	-0,023	0,047
-532,350	-200,000	0,005	-0,060
-531,335	74,611	0,087	0,068
-530,321	800,000	0,030	-0,093
-529,306	158,661	-0,145	-0,148
-528,291	167,814	-0,108	-0,113
-527,277	-200,000	0,049	-0,169
-526,262	38,095	-0,082	-0,054
-525,248	184,907	-0,017	0,018
-524,233	61,123	-0,044	0,032
-523,218	-57,783	0,047	0,015
-522,204	10,680	-0,032	0,018
-521,189	43,366	0,070	-0,047
-520,175	-200,000	-0,004	-0,116
-519,160	19,245	-0,069	0,041
-518,145	800,000	-0,067	0,158
-517,131	-85,264	0,093	-0,021
-516,116	-98,132	-0,092	-0,017
-515,102	-200,000	-0,001	-0,110
-514,087	-128,761	-0,160	-0,016
-513,072	215,841	-0,158	-0,185
-512,058	154,411	0,036	-0,037
-511,043	-200,000	-0,016	-0,123
-510,029	-27,809	-0,026	-0,011
-509,014	163,138	-0,055	0,057
-507,999	226,014	-0,040	0,048
-506,985	764,213	-0,062	-0,125
-505,970	151,843	0,027	-0,027
-504,956	-200,000	0,012	-0,079
-503,941	-200,000	-0,016	-0,145
-502,926	239,069	0,062	0,076
-501,912	-200,000	0,005	0,093
-500,897	154,292	0,088	-0,089
-499,883	-200,000	-0,009	0,128
-498,868	-89,297	-0,159	0,034
-497,853	12,069	-0,158	-0,089
-496,839	-8,998	0,062	0,031
-495,824	-127,836	0,008	0,001
-494,810	-200,000	0,001	0,222
-493,795	-27,123	0,072	-0,031
-492,781	800,000	-0,005	0,013
-491,766	88,616	-0,060	-0,049
-490,751	716,840	0,026	0,050
-489,737	-200,000	-0,004	0,063
-488,722	-69,897	0,078	-0,022
-487,708	-200,000	0,024	0,112
-486,693	204,717	-0,107	0,123
-485,678	319,020	-0,023	-0,033
-484,664	-200,000	0,027	-0,159
-483,649	1,609	0,042	-0,022
-482,635	-16,202	-0,054	0,025
-481,620	375,149	0,027	0,040
-480,605	347,115	0,062	0,090
-479,591	-18,889	0,073	-0,033
-478,576	-142,771	0,031	0,002
-477,562	-55,367	-0,102	-0,033
-476,547	-117,690	0,040	0,005
-475,532	51,772	0,045	0,032
-474,518	-200,000	-0,026	-0,182
-473,503	-34,775	0,092	0,037
-472,489	-200,000	-0,016	-0,086
-471,474	-200,000	-0,012	0,039
-470,459	199,129	-0,008	0,009
-469,445	331,345	0,102	-0,145
-468,430	800,000	0,004	0,012
-467,416	800,000	0,035	0,087
-466,401	45,642	0,055	-0,038
-465,386	-27,244	-0,094	-0,040
-464,372	3,967	-0,090	0,048
-463,357	53,298	0,029	0,021
-462,343	291,621	-0,085	0,114
-461,328	-200,000	-0,010	-0,057
-460,313	-77,660	0,157	0,040
-459,299	-17,806	0,098	-0,045
-458,284	26,146	-0,055	0,034
-457,270	-108,694	-0,132	-0,021
-456,255	-200,000	0,013	-0,126
-455,241	-200,000	-0,009	-0,144
-454,226	-25,342	0,072	0,031
-453,211	-161,002	-0,040	0,002
-452,197	-124,911	0,045	0,005
-451,182	96,769	-0,083	0,070
-450,168	-97,324	0,065	0,012
-449,153	29,396	-0,153	-0,096
-448,138	16,091	0,103	-0,060
-447,124	-200,000	0,012	-0,083
-446,109	400,272	-0,120	-0,186
-445,095	-200,000	0,005	0,023
-444,080	14,054	-0,036	0,020
-443,065	401,049	0,059	0,092
-442,051	800,000	-0,026	0,081
-441,036	71,020	-0,089	-0,068
-440,022	800,000	0,032	-0,067
-439,007	-79,889	0,121	0,030
-437,992	277,690	0,058	0,076
-436,978	293,452	0,020	-0,027
-435,963	-98,674	-0,101	0,019
-434,949	-11,394	0,023	-0,011
-433,934	-15,074	-0,112	-0,052
-432,919	-200,000	0,007	-0,039
-431,905	800,000	0,046	-0,101
-430,890	10,434	0,121	-0,067
-429,876	-200,000	-0,009	-0,071
-428,861	-200,000	-0,033	0,172
-427,846	701,758	0,052	-0,102
-426,832	-200,000	0,000	-0,058
-425,817	-70,745	0,022	0,006
-424,803	800,000	-0,015	-0,036
-423,788	800,000	0,046	-0,096
-422,773	450,860	0,013	0,022
-421,759	800,000	-0,024	0,067
-420,744	232,853	0,077	0,093
-419,730	-200,000	-0,012	-0,140
-418,715	-200,000	-0,021	-0,112
-417,701	-200,000	0,012	0,041
-416,686	-20,425	-0,062	0,028
-415,671	102,747	-0,090	0,077
-414,657	123,226	-0,084	0,077
-413,642	-200,000	0,019	0,073
-412,628	-200,000	-0,030	-0,118
-411,613	-2,286	-0,100	-0,051
-410,598	352,949	-0,027	0,040
-409,584	169,535	0,078	-0,082
-408,569	36,119	0,074	-0,048
-407,555	-138,086	0,170	-0,014
-406,540	0,610	-0,061	-0,032
-405,525	800,000	-0,018	0,038
-404,511	214,086	-0,085	-0,098
-403,496	-200,000	-0,041	-0,155
-402,482	-200,000	0,006	-0,081
-401,467	-47,086	0,088	0,032
-400,452	-200,000	-0,015	0,061
-399,438	136,552	0,085	0,082
-398,423	-99,019	0,037	0,007
-397,409	113,084	-0,026	-0,023
-396,394	38,219	0,161	0,105
-395,379	-71,952	-0,080	-0,022
-394,365	151,574	0,060	-0,060
-393,350	379,159	0,028	0,042
-392,336	-30,605	-0,100	-0,041
-391,321	-21,523	0,055	0,025
-390,306	150,287	-0,056	0,056
-389,292	-8,323	0,065	0,032
-388,277	-7,972	-0,061	0,030
-387,263	-137,881	0,045	-0,004
-386,248	434,855	-0,039	0,062
-385,233	69,407	0,031	0,024
-384,219	1,318	-0,093	0,049
-383,204	-200,000	-0,013	-0,133
-382,190	11,400	-0,078	0,044
-381,175	-136,890	-0,069	-0,006
-380,160	408,760	-0,008	-0,013
-379,146	-200,000	-0,005	0,019
-378,131	174,375	0,048	-0,051
-377,117	42,456	-0,022	0,015
-376,102	-100,167	0,062	-0,011
-375,088	800,000	-0,060	-0,151
-374,073	-200,000	-0,010	0,123
-373,058	245,138	0,069	0,086
-372,044	-56,026	0,175	-0,057
-371,029	800,000	0,022	0,046
-370,015	800,000	-0,046	0,125
-369,000	108,330	0,029	-0,026
-367,985	447,295	-0,069	-0,112
-366,971	14,587	-0,043	-0,025
-365,956	-200,000	0,005	0,058
-364,942	-102,431	-0,101	-0,018
-363,927	21,102	0,085	0,051
-362,912	134,970	-0,058	-0,056
-361,898	462,198	-0,059	-0,097
-360,883	194,814	0,074	-0,082
-359,869	-12,058	-0,041	-0,020
-358,854	37,166	0,017	-0,011
-357,839	255,061	0,027	-0,034
-356,825	-200,000	-0,042	0,210
-355,810	87,108	0,062	0,050
-354,796	800,000	0,047	0,125
-353,781	-50,528	0,094	0,032
-352,766	-200,000	-0,018	-0,090
-351,752	23,574	0,138	-0,083
-350,737	-87,220	-0,100	0,022
-349,723	-200,000	-0,029	-0,109
-348,708	287,681	0,043	0,056
-347,693	-200,000	0,010	-0,131
-346,679	208,367	0,028	0,032
-345,664	233,934	-0,071	-0,086
-344,650	62,990	0,048	-0,035
-343,635	147,037	0,122	-0,120
-342,620	-200,000	-0,027	-0,165
-341,606	26,580	0,113	0,069
-340,591	76,586	0,068	0,053
-339,577	-200,000	0,013	0,066
-338,562	6,595	-0,098	-0,053
-337,548	800,000	-0,032	-0,068
-336,533	-80,139	0,198	-0,048
-335,518	217,360	0,048	-0,056
-334,504	-200,000	-0,048	0,202
-333,489	20,431	0,114	-0,067
-332,475	-200,000	0,022	-0,121
-331,460	496,878	-0,110	-0,186
-330,445	37,265	0,073	-0,047
-329,431	-61,517	0,115	-0,035
-328,416	85,519	0,069	-0,055
-327,402	800,000	-0,008	0,026
-326,387	-70,262	-0,209	0,058
-325,372	-40,658	-0,161	-0,061
-324,358	81,887	-0,101	-0,080
-323,343	800,000	-0,041	-0,102
-322,329	-200,000	-0,009	0,061
-321,314	246,253	-0,019	-0,024
-320,299	154,092	0,076	0,076
-319,285	-95,380	-0,125	-0,024
-318,270	-200,000	0,012	0,127
-317,256	-118,351	-0,069	0,009
-316,241	-200,000	0,002	0,140
-315,226	800,000	-0,051	0,122
-314,212	116,958	0,107	0,097
-313,197	44,690	0,113	0,076
-312,183	800,000	-0,024	0,054
-311,168	-103,217	-0,067	-0,011
-310,153	-200,000	0,014	-0,101
-309,139	-33,361	-0,070	-0,028
-308,124	255,238	-0,104	-0,131
-307,110	800,000	0,031	0,073
-306,095	347,186	0,066	0,096
-305,080	84,597	0,016	0,013
-304,066	-200,000	0,018	0,063
-303,051	101,129	-0,088	0,075
-302,037	-21,673	-0,098	-0,043
-301,022	-19,905	0,072	0,032
-300,008	225,985	-0,038	-0,045
-298,993	623,384	0,023	-0,042
-297,978	-146,306	-0,019	0,001
-296,964	800,000	-0,021	0,049
-295,949	-28,692	-0,055	-0,023
-294,935	463,346	-0,040	0,066
-293,920	13,685	-0,066	0,037
-292,905	-28,061	-0,122	-0,051
-291,891	-80,280	0,063	0,015
-290,876	-171,461	0,064	-0,002
-289,862	66,201	-0,111	0,083
-288,847	-200,000	-0,013	0,108
-287,832	107,447	-0,034	0,030
-286,818	-200,000	-0,014	-0,124
-285,803	-22,920	0,209	-0,092
-284,789	73,640	0,048	0,036
-283,774	-41,855	-0,046	-0,017
-282,759	800,000	0,037	-0,110
-281,745	12,647	-0,072	-0,040
-280,730	-90,290	-0,187	0,039
-279,716	359,730	-0,059	0,087
-278,701	13,245	-0,042	0,024
-277,686	62,992	0,064	0,047
-276,672	70,694	0,148	0,112
-275,657	-200,000	-0,003	0,027
-274,643	-200,000	-0,008	0,028
-273,628	179,653	-0,040	-0,043
-272,613	-200,000	-0,005	0,088
-271,599	320,940	0,104	0,145
-270,584	-200,000	-0,013	0,103
-269,570	204,688	0,154	0,175
-268,555	-200,000	-0,020	0,195
-267,540	-154,014	-0,108	-0,005
-266,526	-14,980	0,014	0,007
-265,511	-200,000	-0,035	-0,142
-264,497	800,000	-0,007	-0,018
-263,482	650,565	0,046	0,086
-262,467	-108,229	0,164	0,026
-261,453	800,000	-0,016	0,034
-260,438	280,077	-0,051	-0,066
-259,424	221,375	0,049	-0,058
-258,409	131,066	0,084	-0,079
-257,395	-200,000	-0,020	-0,108
-256,380	260,141	0,046	0,058
-255,365	-13,571	-0,171	0,081
-254,351	191,971	-0,028	-0,031
-253,336	-200,000	-0,017	0,124
-252,322	-22,850	0,108	0,047
-251,307	390,395	0,044	-0,067
-250,292	772,193	0,110	0,219
-249,278	-108,513	-0,098	-0,015
-248,263	-6,242	0,208	0,103
-247,249	-58,065	-0,061	-0,019
-246,234	452,431	-0,008	0,013
-245,219	9,261	-0,063	0,035
-244,205	800,000	-0,030	0,073
-243,190	-41,213	0,031	-0,012
-242,176	43,082	-0,020	0,013
-241,161	-62,760	-0,115	-0,034
-240,146	466,933	0,058	0,095
-239,132	-200,000	0,010	-0,061
-238,117	644,523	0,058	-0,109
-237,103	-7,385	0,093	-0,046
-236,088	-45,640	0,193	0,069
-235,073	34,349	0,151	-0,096
-234,059	710,423	0,068	0,132
-233,044	800,000	0,026	0,085
-232,030	320,833	0,063	-0,088
-231,015	129,087	-0,057	-0,053
-230,000	-37,474	-0,153	-0,059
-228,986	-135,669	0,035	-0,003
-227,971	-81,712	0,095	-0,023
-226,957	-200,000	-0,001	0,035
-225,942	224,759	-0,071	0,084
-224,927	656,850	-0,002	-0,003
-223,913	44,499	-0,046	0,031
-222,898	190,602	0,016	-0,017
-221,884	779,851	0,018	0,036
-220,869	272,015	0,060	-0,077
-219,855	-200,000	-0,003	0,048
-218,840	118,803	0,113	0,102
-217,825	66,456	-0,045	-0,033
-216,811	-68,372	0,015	0,004
-215,796	34,345	0,090	0,057
-214,782	-200,000	0,000	0,078
-213,767	-145,995	0,058	-0,004
-212,752	800,000	-0,029	-0,085
-211,738	800,000	-0,023	0,067
-210,723	-89,281	0,048	0,010
-209,709	-200,000	0,015	0,131
-208,694	168,815	-0,026	0,027
-207,679	127,599	0,109	-0,101
-206,665	-77,857	0,018	0,004
-205,650	145,030	0,069	0,067
-204,636	-69,585	0,175	-0,049
-203,621	-2,391	-0,110	-0,056
-202,606	-200,000	-0,003	-0,058
-201,592	257,893	-0,115	-0,144
-200,577	-77,408	0,135	0,034
-199,563	-60,287	-0,081	-0,025
-198,548	-94,702	0,114	-0,022
-197,533	389,525	0,026	0,040
-196,519	56,485	-0,022	-0,016
-195,504	-200,000	-0,000	0,096
-194,490	75,359	0,067	0,051
-193,475	-192,169	0,047	0,000
-192,460	-95,667	0,199	0,038
-191,446	186,396	-0,092	-0,100
-190,431	15,117	-0,045	0,026
-189,417	-186,676	0,130	-0,001
-188,402	-69,141	0,049	0,014
-187,387	-54,183	-0,093	-0,031
-186,373	186,081	-0,084	0,091
-185,358	-69,969	-0,099	0,027
-184,344	-200,000	0,003	0,031
-183,329	-200,000	0,014	-0,126
-182,315	-20,772	-0,047	-0,021
-181,300	-62,548	0,012	0,004
-180,285	-50,747	-0,068	0,023
-179,271	126,234	0,043	0,040
-178,256	382,573	-0,045	0,068
-177,242	800,000	0,058	0,165
-176,227	-200,000	0,037	0,129
-175,212	-95,570	-0,061	-0,012
-174,198	363,563	-0,089	0,131
-173,183	169,424	-0,117	-0,121
-172,169	-36,917	-0,106	0,041
-171,154	-62,485	0,147	0,044
-170,139	186,208	0,160	0,173
-169,125	-37,593	-0,116	0,045
-168,110	619,451	0,105	-0,193
-167,096	-5,341	0,075	-0,037
-166,081	800,000	-0,021	-0,065
-165,066	88,699	-0,034	-0,028
-164,052	800,000	-0,022	-0,053
-163,037	71,229	0,095	0,071
-162,023	-200,000	0,033	0,120
-161,008	-90,557	0,052	0,011
-159,993	-50,951	-0,062	0,021
-158,979	-1,585	-0,080	0,041
-157,964	-200,000	-0,001	-0,100
-156,950	800,000	0,016	-0,051
-155,935	720,827	-0,048	-0,093
-154,920	232,784	0,043	-0,051
-153,906	10,912	-0,075	0,041
-152,891	-31,563	-0,083	0,034
-151,877	-101,584	-0,162	-0,028
-150,862	-86,363	-0,106	0,024
-149,847	196,430	0,021	0,024
-148,833	389,772	0,080	0,121
-147,818	-200,000	-0,006	0,033
-146,804	376,970	0,026	0,039
-145,789	403,910	-0,028	-0,043
-144,775	21,843	0,020	0,012
-143,760	800,000	0,055	-0,134
-142,745	42,732	0,098	0,065
-141,731	370,146	-0,049	-0,072
-140,716	-200,000	0,013	0,082
-139,702	47,560	0,057	0,038
-138,687	126,585	0,053	0,048
-137,672	739,221	0,023	-0,045
-136,658	-27,879	-0,006	-0,003
-135,643	-100,235	0,047	0,008
-134,629	212,956	-0,066	-0,075
-133,614	-3,685	0,034	-0,017
-132,599	403,184	-0,038	0,058
-131,585	800,000	-0,043	-0,099
-130,570	399,679	0,093	-0,143
-129,556	-200,000	-0,017	-0,081
-128,541	97,387	-0,033	-0,027
-127,526	800,000	-0,026	-0,053
-126,512	187,044	0,038	-0,041
-125,497	-140,584	0,064	-0,005
-124,483	-200,000	0,003	0,089
-123,468	-126,122	-0,076	-0,008
-122,453	122,902	-0,026	0,023
-121,439	800,000	-0,022	0,046
-120,424	-134,515	-0,171	0,015
-119,410	671,546	-0,056	-0,106
-118,395	127,313	0,066	0,061
-117,380	154,601	-0,030	-0,030
-116,366	-200,000	-0,005	0,044
-115,351	-54,564	-0,077	0,025
-114,337	590,837	-0,013	-0,023
-113,322	167,303	-0,085	-0,088
-112,307	-125,546	-0,184	0,020
-111,293	-200,000	-0,036	0,124
-110,278	362,560	-0,019	-0,027
-109,264	318,152	-0,018	-0,025
-108,249	18,842	-0,080	-0,046
-107,234	-200,000	0,008	-0,106
-106,220	-182,594	-0,116	0,002
-105,205	-200,000	-0,000	-0,013
-104,191	-33,702	0,113	0,045
-103,176	84,584	0,109	0,086
-102,162	-31,662	0,052	0,021
-101,147	-200,000	-0,022	0,076
-100,132	-134,294	-0,038	0,003
-99,118	-200,000	0,003	-0,013
-98,103	12,116	-0,046	0,026
-97,089	-200,000	0,034	-0,122
-96,074	199,160	-0,049	0,055
-95,059	800,000	-0,016	0,049
-94,045	318,597	-0,073	0,101
-93,030	-85,615	0,031	0,007
-92,016	-6,557	-0,069	0,034
-91,001	800,000	0,047	0,114
-89,986	-200,000	-0,017	0,088
-88,972	551,153	-0,046	-0,080
-87,957	800,000	0,044	0,126
-86,943	800,000	0,024	0,068
-85,928	166,557	0,068	-0,070
-84,913	-189,791	-0,150	0,001
-83,899	19,753	-0,149	-0,087
-82,884	-200,000	0,014	0,085
-81,870	-200,000	0,011	-0,061
-80,855	540,773	0,085	0,147
-79,840	-75,776	-0,113	0,029
-78,826	-200,000	0,004	-0,088
-77,811	-97,875	0,090	-0,017
-76,797	-22,873	-0,110	-0,048
-75,782	275,058	0,093	-0,120
-74,767	297,577	0,054	0,072
-73,753	697,606	0,042	0,080
-72,738	-88,647	0,041	-0,009
-71,724	800,000	-0,045	-0,097
-70,709	800,000	-0,005	0,013
-69,694	162,862	0,095	-0,097
-68,680	-200,000	-0,001	0,011
-67,665	-200,000	0,011	0,046
-66,651	-200,000	-0,010	0,034
-65,636	-152,663	-0,081	-0,004
-64,622	-137,190	0,174	-0,014
-63,607	-163,465	0,013	-0,000
-62,592	-57,714	-0,082	0,026
-61,578	-200,000	-0,001	-0,014
-60,563	571,410	0,081	0,144
-59,549	-6,327	-0,108	0,053
-58,534	-117,166	-1,389	-0,181
-57,519	525,300	-0,789	-1,352
-56,505	-200,000	-0,918	-4,325
-55,490	-41,360	0,554	-0,206
-54,476	800,000	4,823	11,511
-53,461	-200,000	13,890	251,171
-52,446	-200,000	693,179	2233,495
-51,432	578,706	1620,889	2885,648
-50,417	117,375	1629,260	1451,516
-49,403	73,652	1283,655	973,357
-48,388	37,623	1020,688	654,980
-47,373	23,820	979,019	583,020
-46,359	23,104	968,415	574,345
-45,344	22,101	964,243	568,585
-44,330	22,028	962,661	567,392
-43,315	21,854	961,420	566,072
-42,300	21,890	960,212	565,454
-41,286	21,914	959,157	564,890
-40,271	21,832	958,529	564,232
-39,257	21,844	957,334	563,544
-38,242	21,855	956,386	563,000
-37,227	21,810	955,484	562,300
-36,213	21,773	954,833	561,777
-35,198	21,749	953,918	561,139
-34,184	21,894	953,259	561,194
-33,169	21,784	952,220	560,207
-32,154	21,912	951,167	559,975
-31,140	21,868	950,530	559,437
-30,125	21,879	949,822	559,036
-29,111	21,825	948,908	558,302
-28,096	21,807	948,434	557,943
-27,082	21,818	947,686	557,516
-26,067	21,844	946,791	557,050
-25,052	21,872	946,190	556,765
-24,038	21,829	945,430	556,156
-23,023	21,836	944,767	555,769
-22,009	21,854	944,153	555,442
-20,994	21,840	943,442	554,958
-19,979	21,929	942,805	554,844
-18,965	21,850	942,358	554,309
-17,950	21,851	941,708	553,907
-16,936	21,838	940,983	553,415
-15,921	21,750	940,259	552,691
-14,906	21,788	939,451	552,312
-13,892	21,752	938,976	551,898
-12,877	21,738	938,381	551,481
-11,863	21,697	937,650	550,899
-10,848	21,736	937,187	550,731
-9,833	21,811	936,899	550,777
-8,819	21,705	936,356	550,101
-7,804	21,696	935,464	549,525
-6,790	21,729	934,867	549,258
-5,775	21,802	934,164	549,051
-4,760	21,734	933,676	548,528
-3,746	21,712	932,914	547,990
-2,731	21,570	932,257	547,137
-1,717	21,510	931,492	546,478
-0,702	21,522	930,953	546,177
0,313	21,305	930,499	546,054
1,327	23,843	927,925	552,443
2,342	31,595	806,137	500,856
3,356	26,664	507,027	306,617
4,371	2,661	372,389	194,801
5,386	-0,347	355,422	182,236
6,400	-2,044	349,010	176,895
7,415	-2,887	346,186	174,443
8,429	-2,996	344,611	173,505
9,444	-3,142	343,816	172,916
10,459	-3,232	343,148	172,459
11,473	-3,117	342,549	172,277
12,488	-2,927	341,888	172,153
13,502	-2,842	341,502	172,044
14,517	-2,985	340,998	171,606
15,531	-3,226	340,339	170,978
16,546	-3,158	339,875	170,808
17,561	-3,133	339,290	170,528
18,575	-3,163	338,969	170,317
19,590	-3,190	338,707	170,139
20,604	-3,087	338,373	170,075
21,619	-3,206	337,930	169,699
22,634	-3,043	337,566	169,691
23,648	-3,283	337,221	169,223
24,663	-3,176	336,916	169,180
25,677	-3,119	336,542	169,043
26,692	-3,372	336,390	168,659
27,707	-3,161	336,003	168,693
28,721	-3,202	335,700	168,479
29,736	-3,267	335,409	168,242
30,750	-3,090	335,010	168,231
31,765	-3,185	334,769	167,986
32,780	-3,189	334,458	167,810
33,794	-3,183	334,183	167,664
34,809	-3,271	333,859	167,386
35,823	-3,248	333,695	167,315
36,838	-3,175	333,403	167,238
37,853	-3,230	332,956	166,936
38,867	-3,224	332,783	166,840
39,882	-3,247	332,656	166,736
40,896	-3,133	332,173	166,609
41,911	-3,222	331,928	166,370
42,926	-3,203	331,628	166,226
43,940	-3,267	331,413	166,031
44,955	-3,415	331,090	165,686
45,969	-3,259	330,929	165,768
46,984	-3,534	330,685	165,319
47,999	-3,517	330,303	165,132
49,013	-3,536	329,998	164,944
50,028	-3,854	329,733	164,436
51,042	-3,838	329,442	164,294
52,057	-3,592	329,089	164,382
53,071	-3,713	329,139	164,255
54,086	-3,598	328,701	164,152
55,101	-3,719	328,511	163,907
56,115	-3,470	328,243	164,038
57,130	-3,287	328,221	164,219
58,144	-3,209	327,787	164,074
59,159	-3,131	327,560	164,033
60,174	-3,098	327,340	163,946
61,188	-3,342	327,168	163,572
62,203	-3,337	326,885	163,422
63,217	-3,149	326,545	163,447
64,232	-3,110	326,400	163,403
65,247	-3,066	326,174	163,325
66,261	-3,002	325,804	163,196
67,276	-3,151	325,456	162,842
68,290	-3,319	325,188	162,506
69,305	-3,301	324,941	162,387
70,320	-3,385	324,740	162,180
71,334	-3,122	324,563	162,369
72,349	-3,088	324,367	162,294
73,363	-3,003	324,182	162,282
74,378	-2,972	323,759	162,089
75,393	-3,087	323,574	161,855
76,407	-3,152	323,202	161,583
77,422	-3,199	323,055	161,443
78,436	-3,117	322,827	161,405
79,451	-2,974	322,534	161,402
80,466	-3,162	322,247	161,037
81,480	-3,318	321,903	160,678
82,495	-3,406	321,609	160,420
83,509	-3,459	321,568	160,328
84,524	-3,507	321,323	160,138
85,539	-3,340	320,966	160,130
86,553	-3,386	320,862	160,013
87,568	-3,191	320,420	159,992
88,582	-3,456	320,369	159,662
89,597	-3,279	319,969	159,642
90,611	-3,392	319,940	159,490
91,626	-3,137	319,593	159,582
92,641	-3,313	319,573	159,365
93,655	-3,282	319,224	159,211
94,670	-3,276	318,863	159,022
95,684	-3,259	318,660	158,926
96,699	-3,277	318,432	158,778
97,714	-3,240	318,131	158,654
98,728	-3,268	317,970	158,529
99,743	-3,525	317,724	158,114
100,757	-3,499	317,545	158,038
101,772	-3,310	317,190	158,052
102,787	-3,205	316,981	158,047
103,801	-3,399	316,799	157,733
104,816	-3,091	316,581	157,944
105,830	-3,226	316,346	157,666
106,845	-3,302	316,222	157,509
107,860	-3,333	316,021	157,361
108,874	-3,349	315,680	157,160
109,889	-3,235	315,411	157,135
110,903	-3,203	315,148	157,024
111,918	-3,261	314,982	156,864
112,933	-3,267	314,709	156,709
113,947	-3,261	314,518	156,606
114,962	-3,270	314,423	156,535
115,976	-3,266	314,148	156,388
116,991	-3,172	313,950	156,377
118,006	-3,412	313,742	156,002
119,020	-3,364	313,654	155,996
120,035	-3,092	313,338	156,115
121,049	-3,242	313,168	155,857
122,064	-3,182	312,873	155,760
123,079	-3,290	312,819	155,604
124,093	-3,297	312,567	155,458
125,108	-3,310	312,026	155,161
126,122	-3,441	311,808	154,899
127,137	-3,469	311,654	154,779
128,151	-3,330	311,475	154,824
129,166	-3,476	311,178	154,508
130,181	-3,298	310,911	154,550
131,195	-3,595	310,789	154,161
132,210	-3,289	310,609	154,382
133,224	-3,049	310,269	154,452
134,239	-3,125	310,207	154,327
135,254	-3,141	309,936	154,162
136,268	-3,334	309,825	153,890
137,283	-3,430	309,592	153,659
138,297	-3,404	309,004	153,381
139,312	-3,479	308,966	153,269
140,327	-3,246	308,825	153,430
141,341	-3,096	308,649	153,487
142,356	-2,860	308,450	153,622
143,370	-2,883	308,390	153,554
144,385	-2,746	308,039	153,510
145,400	-2,875	307,819	153,251
146,414	-2,958	307,711	153,096
147,429	-3,018	307,546	152,938
148,443	-2,946	307,250	152,853
149,458	-2,920	307,054	152,769
150,473	-2,931	306,937	152,685
151,487	-2,893	306,502	152,495
152,502	-2,922	306,328	152,365
153,516	-3,085	306,255	152,145
154,531	-3,059	305,960	152,012
155,546	-2,902	305,840	152,102
156,560	-3,070	305,505	151,748
157,575	-3,157	305,187	151,486
158,589	-3,029	305,040	151,532
159,604	-2,930	304,792	151,498
160,619	-2,989	304,725	151,390
161,633	-3,003	304,411	151,205
162,648	-2,914	304,273	151,216
163,662	-2,936	304,129	151,108
164,677	-3,058	303,871	150,840
165,692	-2,999	303,633	150,770
166,706	-2,930	303,450	150,736
167,721	-2,942	303,173	150,573
168,735	-3,053	303,105	150,411
169,750	-2,871	302,935	150,500
170,764	-2,671	302,809	150,631
171,779	-2,833	302,519	150,307
172,794	-2,830	302,318	150,196
173,808	-3,101	302,048	149,771
174,823	-3,208	301,665	149,458
175,837	-3,311	301,498	149,257
176,852	-3,084	301,472	149,463
177,867	-2,848	301,362	149,637
178,881	-2,949	301,202	149,440
179,896	-2,753	300,968	149,511
180,910	-2,929	300,763	149,216
181,925	-2,904	300,416	149,056
182,940	-2,828	300,414	149,120
183,954	-2,779	300,098	148,999
184,969	-2,801	299,916	148,873
185,983	-2,953	299,713	148,604
186,998	-2,904	299,503	148,537
188,013	-2,861	299,372	148,502
189,027	-2,845	299,112	148,376
190,042	-2,860	298,931	148,258
191,056	-2,865	298,793	148,171
192,071	-2,766	298,540	148,133
193,086	-2,614	298,284	148,146
194,100	-2,835	298,143	147,840
195,115	-2,807	297,906	147,738
196,129	-2,912	297,657	147,495
197,144	-2,835	297,575	147,518
198,159	-2,732	297,263	147,454
199,173	-2,741	296,951	147,278
200,188	-2,626	296,933	147,371
201,202	-2,953	296,583	146,856
202,217	-3,297	296,095	146,256
203,232	-3,135	295,881	146,300
204,246	-2,974	295,871	146,443
205,261	-2,791	295,782	146,569
206,275	-2,933	295,602	146,325
207,290	-2,822	295,497	146,371
208,304	-2,971	295,137	146,031
209,319	-3,104	295,057	145,846
210,334	-2,961	294,855	145,876
211,348	-2,778	294,613	145,924
212,363	-2,901	294,334	145,651
213,377	-2,890	294,249	145,607
214,392	-2,926	293,990	145,430
215,407	-2,991	293,718	145,218
216,421	-3,212	293,637	144,945
217,436	-3,191	293,245	144,760
218,450	-3,161	293,126	144,718
219,465	-3,152	293,029	144,666
220,480	-2,984	292,857	144,734
221,494	-2,814	292,638	144,782
222,509	-3,024	292,490	144,488
223,523	-3,072	292,450	144,408
224,538	-2,718	292,071	144,557
225,553	-2,926	291,934	144,271
226,567	-2,735	291,728	144,345
227,582	-2,788	291,581	144,207
228,596	-2,948	291,598	144,045
229,611	-2,718	291,210	144,067
230,626	-2,879	291,152	143,867
231,640	-3,039	290,796	143,521
232,655	-3,191	290,397	143,162
233,669	-3,301	290,219	142,954
234,684	-3,256	290,058	142,906
235,699	-3,287	289,963	142,816
236,713	-3,052	289,815	142,960
237,728	-3,054	289,695	142,886
238,742	-3,154	289,488	142,674
239,757	-2,891	289,124	142,738
240,772	-2,983	289,129	142,638
241,786	-3,144	288,942	142,377
242,801	-3,017	288,622	142,330
243,815	-3,143	288,523	142,145
244,830	-3,102	288,346	142,086
245,844	-3,088	288,159	141,995
246,859	-3,012	287,991	141,972
247,874	-3,129	287,872	141,788
248,888	-3,121	287,597	141,647
249,903	-2,886	287,560	141,844
250,917	-2,932	287,393	141,705
251,932	-2,838	287,330	141,752
252,947	-2,304	287,334	142,259
253,961	-2,505	286,895	141,835
254,976	-1,638	287,330	142,876
255,990	1,063	288,116	145,871
257,005	2,005	288,284	146,856
258,020	3,250	288,691	148,257
259,034	3,510	288,436	148,365
260,049	3,461	288,191	148,177
261,063	3,284	288,087	147,940
262,078	3,274	287,978	147,861
263,093	3,806	287,985	148,365
264,107	4,000	287,824	148,456
265,122	4,061	287,838	148,509
266,136	4,424	287,469	148,655
267,151	4,198	287,385	148,381
268,166	3,859	287,028	147,857
269,180	4,067	286,957	148,008
270,195	4,033	286,715	147,837
271,209	3,974	286,562	147,688
272,224	4,011	286,259	147,554
273,239	3,856	286,040	147,280
274,253	3,670	285,911	147,022
275,268	3,984	285,828	147,267
276,282	4,155	285,606	147,303
277,297	4,165	285,470	147,229
278,312	4,514	285,460	147,544
279,326	4,392	285,239	147,301
280,341	4,070	284,942	146,826
281,355	3,854	284,679	146,472
282,370	3,898	284,392	146,353
283,384	3,850	284,352	146,274
284,399	3,963	284,131	146,255
285,414	4,038	283,849	146,167
286,428	3,962	283,718	146,015
287,443	3,604	283,490	145,545
288,457	3,413	283,391	145,301
289,472	3,603	283,024	145,279
290,487	3,465	282,867	145,055
291,501	3,357	282,572	144,789
292,516	3,280	282,430	144,630
293,530	3,199	282,299	144,474
294,545	3,628	282,223	144,827
295,560	3,837	282,126	144,962
296,574	3,623	281,719	144,538
297,589	3,686	281,648	144,548
298,603	4,051	281,536	144,821
299,618	3,834	281,410	144,539
300,633	3,727	281,209	144,322
301,647	3,694	281,070	144,207
302,662	3,751	280,834	144,126
303,676	3,695	280,561	143,921
304,691	3,403	280,246	143,473
305,706	3,229	280,045	143,195
306,720	3,206	279,896	143,084
307,735	3,234	279,723	143,010
308,749	3,398	279,666	143,121
309,764	3,393	279,523	143,031
310,779	3,417	279,084	142,815
311,793	3,184	279,018	142,552
312,808	3,117	278,834	142,383
313,822	3,240	278,667	142,399
314,837	3,258	278,386	142,259
315,852	2,938	278,376	141,944
316,866	3,270	278,090	142,094
317,881	3,287	277,997	142,049
318,895	3,200	277,707	141,808
319,910	3,192	277,499	141,682
320,925	3,043	277,342	141,451
321,939	3,301	277,291	141,651
322,954	3,494	277,091	141,715
323,968	3,268	277,092	141,494
324,983	3,624	276,863	141,693
325,997	3,665	276,647	141,608
327,012	3,366	276,465	141,226
328,027	3,550	276,172	141,233
329,041	3,342	276,077	140,981
330,056	3,594	275,866	141,092
331,070	3,378	275,755	140,824
332,085	3,302	275,516	140,620
333,100	3,499	275,434	140,746
334,114	3,367	275,038	140,411
335,129	3,270	274,874	140,225
336,143	3,430	274,849	140,346
337,158	3,828	274,604	140,573
338,173	3,684	274,483	140,367
339,187	3,460	274,310	140,061
340,202	3,461	274,159	139,973
341,216	3,502	273,963	139,897
342,231	3,624	273,860	139,944
343,246	3,523	273,642	139,728
344,260	3,383	273,571	139,552
345,275	3,776	273,440	139,830
346,289	3,903	273,238	139,830
347,304	3,734	273,139	139,613
348,319	3,579	272,843	139,309
349,333	3,297	272,726	138,981
350,348	3,731	272,669	139,333
351,362	3,900	272,431	139,352
352,377	3,890	272,269	139,248
353,392	3,802	272,056	139,047
354,406	3,814	271,876	138,953
355,421	192,690	1330,572	1412,107
356,435	155,704	1459,643	1412,215
