DTS Sentinel unit serial number:	SN410029Multiplexer serial number:	ORYXHardware model number:	OX2-SRSoftware version number:	ORYX F/W v4,00 Oryx Data Collector v3.7.2.0data status	okinstallation	B4 Nyhavnadifferential loss correction	single-endedforward channel	channel 2reverse channel	N/Adate	2023/12/18time	15:15:13forward acquisition time	300,00reverse acquisition time	0,00gamma	499,1914k internal	0,3172k external	0,3172temperature offset calibration	1,0000default loss term (dB/km)	0,3820temperature slope calibration	1,0000multiplexer offset coefficient	1,0000multiplexer slope coefficient	1,0000fibre end	0,00T internal ref (°C)	13,06T ext. ref 1 (°C)	7,03T ext. ref 2 (°C)	7,14length (m)	temperature (°C)	Stokes	anti-Stokes-744,400	5,226	0,162	0,087
-743,385	-128,382	-0,195	0,020
-742,371	24,096	0,161	0,097
-741,356	-129,113	-0,215	0,022
-740,342	-200,000	-0,002	-0,007
-739,327	-122,796	-0,338	0,040
-738,312	9,220	0,095	0,053
-737,298	-82,703	-0,293	0,069
-736,283	180,449	0,155	-0,167
-735,269	-191,467	-0,388	0,003
-734,254	727,218	0,013	-0,025
-733,239	58,194	-0,321	-0,231
-732,225	-125,959	0,124	0,013
-731,210	168,940	0,071	0,074
-730,196	800,000	-0,065	-0,133
-729,181	-7,111	0,035	-0,017
-728,167	227,221	0,054	-0,064
-727,152	535,983	-0,087	-0,152
-726,137	513,038	0,059	-0,101
-725,123	-88,922	-0,070	-0,015
-724,108	31,669	-0,112	-0,070
-723,094	-176,442	-0,083	-0,002
-722,079	19,445	-0,078	0,046
-721,064	260,171	0,085	-0,107
-720,050	-200,000	-0,028	-0,161
-719,035	-27,494	-0,216	-0,092
-718,021	15,012	-0,010	0,006
-717,006	72,951	-0,143	-0,109
-715,991	-55,080	-0,059	0,019
-714,977	212,712	-0,032	-0,037
-713,962	-200,000	0,012	-0,107
-712,948	-200,000	0,003	0,015
-711,933	73,370	0,099	0,076
-710,918	452,181	0,009	0,014
-709,904	-200,000	-0,001	-0,063
-708,889	800,000	-0,045	-0,114
-707,875	151,200	-0,027	-0,027
-706,860	-200,000	0,018	-0,126
-705,845	-23,761	0,066	0,029
-704,831	282,664	0,060	0,079
-703,816	-200,000	-0,005	0,019
-702,802	-200,000	0,003	-0,088
-701,787	237,983	-0,083	-0,101
-700,772	40,360	0,029	0,019
-699,758	464,286	-0,106	-0,175
-698,743	530,726	0,044	0,077
-697,729	-200,000	0,044	-0,199
-696,714	247,979	0,100	-0,124
-695,699	333,486	0,016	-0,022
-694,685	790,633	-0,039	-0,080
-693,670	-138,082	-0,023	0,002
-692,656	422,655	-0,037	0,059
-691,641	-140,644	-0,045	0,003
-690,627	104,564	0,056	-0,049
-689,612	-88,769	-0,123	-0,027
-688,597	-200,000	0,006	0,105
-687,583	89,704	-0,050	-0,041
-686,568	121,768	-0,133	-0,122
-685,554	-37,756	0,141	-0,055
-684,539	-16,723	0,005	0,002
-683,524	71,062	0,096	-0,073
-682,510	-15,747	0,095	-0,044
-681,495	-151,245	-0,130	-0,007
-680,481	132,646	-0,095	-0,090
-679,466	192,633	-0,097	-0,107
-678,451	800,000	-0,035	0,102
-677,437	-53,589	-0,084	-0,028
-676,422	800,000	-0,044	0,103
-675,408	-200,000	0,043	0,146
-674,393	755,634	-0,021	0,042
-673,378	-75,610	0,131	-0,034
-672,364	120,469	-0,042	-0,039
-671,349	6,216	0,031	-0,017
-670,335	-5,439	0,032	-0,016
-669,320	-87,584	0,183	-0,040
-668,305	-52,263	-0,025	-0,009
-667,291	382,173	0,011	-0,017
-666,276	-12,877	-0,105	-0,050
-665,262	800,000	-0,031	0,063
-664,247	-200,000	-0,006	-0,023
-663,232	633,415	0,009	-0,017
-662,218	-200,000	-0,000	0,021
-661,203	65,422	-0,073	0,054
-660,189	-74,393	0,126	0,033
-659,174	106,826	0,097	0,084
-658,159	167,767	-0,048	-0,050
-657,145	641,016	-0,093	0,175
-656,130	-93,085	0,079	0,016
-655,116	-25,623	0,046	0,020
-654,101	-184,244	0,075	-0,001
-653,086	-200,000	0,015	-0,129
-652,072	-200,000	0,016	0,096
-651,057	800,000	0,029	-0,082
-650,043	-200,000	0,003	-0,068
-649,028	-200,000	-0,012	0,092
-648,014	110,296	0,168	0,147
-646,999	-200,000	-0,002	0,066
-645,984	35,282	-0,089	-0,057
-644,970	392,656	-0,029	-0,044
-643,955	-200,000	0,002	-0,041
-642,941	-194,568	-0,173	0,001
-641,926	70,930	0,084	0,063
-640,911	583,828	0,009	-0,016
-639,897	-18,355	-0,116	-0,053
-638,882	-119,690	0,074	-0,009
-637,868	-94,276	0,088	-0,018
-636,853	471,688	0,069	-0,113
-635,838	-30,071	0,106	0,044
-634,824	-63,122	-0,045	0,014
-633,809	-9,759	0,077	0,037
-632,795	-200,000	-0,023	0,099
-631,780	129,401	0,005	0,005
-630,765	26,430	0,024	0,015
-629,751	-75,547	-0,059	0,015
-628,736	-200,000	0,009	-0,097
-627,722	800,000	0,043	-0,100
-626,707	235,000	0,046	0,055
-625,692	800,000	0,012	-0,034
-624,678	-142,782	0,055	0,004
-623,663	34,789	-0,041	0,026
-622,649	47,347	0,040	0,027
-621,634	28,658	-0,126	-0,078
-620,619	266,846	-0,021	-0,027
-619,605	-200,000	0,013	0,122
-618,590	384,074	0,073	0,109
-617,576	-200,000	-0,026	-0,099
-616,561	67,770	-0,084	0,063
-615,546	10,123	-0,066	0,037
-614,532	-200,000	-0,009	0,038
-613,517	12,908	-0,139	-0,078
-612,503	-41,426	-0,071	0,027
-611,488	18,303	0,098	0,057
-610,474	234,728	-0,075	0,090
-609,459	187,383	0,031	0,034
-608,444	-125,225	-0,068	-0,007
-607,430	63,140	-0,086	-0,063
-606,415	26,398	-0,069	0,042
-605,401	-112,906	0,053	0,008
-604,386	321,072	0,027	0,038
-603,371	784,554	0,012	-0,024
-602,357	800,000	0,049	0,147
-601,342	-71,430	-0,103	0,028
-600,328	-101,037	-0,098	-0,017
-599,313	-200,000	-0,007	0,062
-598,298	800,000	0,033	0,082
-597,284	-31,114	0,002	-0,001
-596,269	-160,735	-0,026	0,001
-595,255	-12,234	0,133	0,063
-594,240	149,734	-0,097	0,096
-593,225	106,438	-0,150	-0,130
-592,211	-200,000	-0,017	0,128
-591,196	800,000	0,032	0,092
-590,182	-72,431	0,089	-0,024
-589,167	-41,690	0,045	0,017
-588,152	109,465	-0,096	0,084
-587,138	375,446	0,055	0,082
-586,123	64,051	-0,112	-0,082
-585,109	-35,703	-0,115	0,045
-584,094	146,857	-0,083	-0,081
-583,079	157,421	-0,089	-0,090
-582,065	278,068	0,049	0,064
-581,050	-200,000	-0,022	0,110
-580,036	93,779	-0,095	0,078
-579,021	265,965	-0,048	-0,061
-578,006	800,000	-0,034	0,071
-576,992	-200,000	-0,005	0,136
-575,977	-200,000	0,004	-0,073
-574,963	-200,000	0,019	-0,063
-573,948	-16,636	0,077	-0,035
-572,934	-9,440	-0,112	-0,054
-571,919	225,602	-0,060	-0,071
-570,904	-57,454	-0,149	-0,048
-569,890	652,311	-0,086	-0,161
-568,875	-200,000	-0,004	-0,083
-567,861	7,517	0,083	0,045
-566,846	29,974	-0,051	-0,032
-565,831	-15,707	-0,120	-0,056
-564,817	-200,000	-0,001	0,028
-563,802	-62,377	0,067	-0,020
-562,788	800,000	-0,038	-0,103
-561,773	358,024	-0,031	-0,045
-560,758	217,141	0,037	-0,043
-559,744	-59,410	0,153	0,048
-558,729	92,942	-0,091	0,075
-557,715	-200,000	0,006	0,034
-556,700	96,973	-0,118	-0,098
-555,685	-112,922	-0,136	0,019
-554,671	398,813	0,020	-0,031
-553,656	-200,000	0,005	-0,055
-552,642	-72,279	0,067	-0,018
-551,627	-52,091	-0,106	0,036
-550,612	230,592	-0,034	0,040
-549,598	343,443	0,026	0,037
-548,583	486,713	-0,056	0,093
-547,569	-83,421	-0,046	0,011
-546,554	6,778	-0,061	0,033
-545,539	181,002	0,069	-0,074
-544,525	-97,028	-0,122	-0,023
-543,510	-46,897	0,046	-0,016
-542,496	339,375	-0,089	0,127
-541,481	215,834	-0,084	-0,098
-540,466	153,203	0,078	0,077
-539,452	-114,482	0,082	-0,011
-538,437	82,037	0,054	0,043
-537,423	-200,000	-0,026	-0,110
-536,408	39,283	-0,065	0,042
-535,393	-133,834	0,151	0,013
-534,379	-200,000	0,009	-0,121
-533,364	226,082	-0,090	0,106
-532,350	-81,115	-0,027	-0,006
-531,335	289,050	0,049	0,064
-530,321	800,000	0,022	-0,050
-529,306	-38,628	-0,097	0,037
-528,291	800,000	-0,020	0,058
-527,277	165,691	-0,063	-0,065
-526,262	800,000	0,029	-0,068
-525,248	-200,000	0,021	0,144
-524,233	-186,600	0,159	0,002
-523,218	156,338	0,035	0,035
-522,204	135,961	0,098	0,093
-521,189	96,150	-0,155	-0,129
-520,175	-34,492	-0,159	-0,063
-519,160	162,365	0,101	-0,103
-518,145	800,000	0,045	-0,099
-517,131	-137,071	0,161	0,013
-516,116	-93,436	-0,063	-0,013
-515,102	-144,450	-0,145	-0,010
-514,087	-37,170	-0,108	-0,042
-513,072	800,000	0,042	-0,129
-512,058	-11,349	-0,036	-0,017
-511,043	800,000	-0,035	0,076
-510,029	-200,000	-0,005	-0,046
-509,014	800,000	-0,058	0,152
-507,999	-200,000	-0,022	0,121
-506,985	-45,024	-0,141	0,051
-505,970	-200,000	0,010	-0,061
-504,956	-200,000	-0,024	0,100
-503,941	-200,000	0,017	-0,168
-502,926	-200,000	0,033	0,274
-501,912	418,547	-0,049	0,076
-500,897	-172,536	-0,130	0,003
-499,883	800,000	0,097	-0,197
-498,868	-200,000	-0,034	-0,224
-497,853	351,914	-0,058	0,084
-496,839	17,322	0,150	-0,086
-495,824	-127,441	-0,124	0,013
-494,810	0,145	0,185	-0,096
-493,795	800,000	0,044	-0,114
-492,781	275,578	-0,053	-0,069
-491,766	800,000	0,013	-0,031
-490,751	18,693	0,058	0,033
-489,737	-115,367	0,050	0,007
-488,722	-63,509	0,057	-0,017
-487,708	229,994	0,148	-0,176
-486,693	-2,980	-0,033	0,017
-485,678	122,562	-0,020	-0,018
-484,664	118,802	-0,095	-0,086
-483,649	-119,569	-0,033	0,004
-482,635	166,984	-0,073	-0,075
-481,620	-100,465	0,168	0,030
-480,605	159,573	0,060	0,060
-479,591	-200,000	0,011	-0,037
-478,576	-14,552	-0,117	-0,055
-477,562	31,868	-0,048	-0,030
-476,547	398,790	-0,033	0,050
-475,532	-200,000	0,026	-0,094
-474,518	-68,880	0,118	0,033
-473,503	30,314	-0,095	0,059
-472,489	-200,000	0,006	-0,033
-471,474	332,965	-0,048	0,067
-470,459	800,000	-0,024	0,057
-469,445	167,738	-0,092	-0,095
-468,430	800,000	-0,037	-0,083
-467,416	-200,000	0,020	0,213
-466,401	14,336	0,104	0,059
-465,386	165,497	-0,081	-0,083
-464,372	16,345	-0,066	-0,038
-463,357	144,355	-0,040	0,038
-462,343	35,274	0,027	0,017
-461,328	74,618	0,059	-0,045
-460,313	-200,000	-0,005	-0,070
-459,299	-134,146	0,204	-0,018
-458,284	-78,370	0,086	0,021
-457,270	-200,000	-0,010	0,044
-456,255	-200,000	-0,001	-0,070
-455,241	-200,000	-0,023	0,125
-454,226	-200,000	-0,028	-0,145
-453,211	-200,000	-0,006	-0,131
-452,197	302,414	0,061	0,083
-451,182	165,183	0,054	0,055
-450,168	-200,000	0,004	-0,121
-449,153	-13,183	0,111	0,052
-448,138	-47,337	-0,080	0,028
-447,124	170,321	-0,097	-0,101
-446,109	-179,864	0,071	-0,001
-445,095	-200,000	-0,012	0,188
-444,080	-200,000	-0,005	0,163
-443,065	-151,375	0,154	0,008
-442,051	101,933	-0,191	-0,162
-441,036	-135,728	0,090	-0,008
-440,022	-24,684	-0,064	-0,027
-439,007	7,506	-0,083	-0,045
-437,992	-64,734	0,028	-0,008
-436,978	-44,502	0,060	0,021
-435,963	-6,181	0,012	-0,006
-434,949	-7,251	0,077	-0,038
-433,934	623,677	-0,014	-0,026
-432,919	122,327	0,041	-0,037
-431,905	43,878	0,018	-0,012
-430,890	-67,426	0,150	0,042
-429,876	-81,081	0,212	0,050
-428,861	461,139	-0,048	-0,078
-427,846	28,556	-0,035	-0,022
-426,832	365,511	-0,010	-0,014
-425,817	-98,849	0,066	0,012
-424,803	-200,000	0,008	-0,078
-423,788	-7,582	0,040	0,019
-422,773	-200,000	0,007	0,060
-421,759	-60,248	0,127	0,039
-420,744	-200,000	-0,022	0,128
-419,730	-178,875	0,054	0,001
-418,715	-200,000	-0,005	-0,042
-417,701	366,602	0,010	-0,015
-416,686	-125,472	0,103	-0,011
-415,671	-29,685	-0,031	-0,013
-414,657	-200,000	-0,006	-0,046
-413,642	-200,000	0,003	0,020
-412,628	77,130	0,115	-0,088
-411,613	701,117	-0,049	-0,094
-410,598	26,900	0,087	0,053
-409,584	637,046	0,032	-0,059
-408,569	231,278	-0,034	-0,040
-407,555	-146,309	0,162	0,010
-406,540	-71,811	0,094	-0,025
-405,525	-200,000	-0,036	-0,148
-404,511	74,324	-0,040	-0,030
-403,496	778,934	0,030	0,060
-402,482	-62,755	0,087	0,026
-401,467	800,000	0,040	-0,089
-400,452	-20,528	0,075	0,033
-399,438	146,737	-0,137	-0,134
-398,423	800,000	0,010	0,022
-397,409	-99,572	0,049	0,009
-396,394	86,779	-0,059	-0,047
-395,379	220,094	-0,106	-0,123
-394,365	-200,000	0,015	-0,049
-393,350	88,929	-0,066	0,053
-392,336	137,526	0,016	-0,015
-391,321	-164,740	0,098	-0,003
-390,306	800,000	0,056	0,117
-389,292	800,000	-0,024	-0,066
-388,277	0,142	0,073	-0,037
-387,263	800,000	0,046	-0,107
-386,248	112,918	0,081	-0,071
-385,233	127,354	0,110	0,101
-384,219	223,697	-0,091	0,107
-383,204	-3,841	0,051	0,025
-382,190	800,000	0,037	0,101
-381,175	800,000	0,014	-0,031
-380,160	-68,022	0,075	-0,021
-379,146	800,000	-0,039	0,107
-378,131	-121,149	0,035	0,004
-377,117	122,188	-0,043	-0,039
-376,102	800,000	-0,033	0,094
-375,088	220,901	-0,096	-0,111
-374,073	642,327	-0,074	-0,137
-373,058	277,271	0,083	-0,107
-372,044	189,633	0,086	0,094
-371,029	800,000	0,056	0,150
-370,015	278,066	0,024	0,031
-369,000	253,465	0,074	0,091
-367,985	-107,576	-0,106	0,017
-366,971	402,135	0,052	0,079
-365,956	-200,000	-0,019	0,088
-364,942	80,687	0,111	0,087
-363,927	475,488	0,027	0,044
-362,912	186,466	0,020	0,022
-361,898	-200,000	-0,002	0,012
-360,883	285,047	-0,044	-0,057
-359,869	-41,366	-0,071	-0,026
-358,854	10,932	0,059	-0,033
-357,839	-120,007	0,043	0,005
-356,825	76,045	0,007	-0,005
-355,810	505,568	-0,044	0,074
-354,796	-200,000	0,015	-0,089
-353,781	-72,561	-0,103	-0,027
-352,766	645,662	0,049	-0,091
-351,752	195,449	-0,113	-0,124
-350,737	-200,000	-0,007	0,064
-349,723	83,389	-0,050	0,040
-348,708	201,596	0,101	0,113
-347,693	-49,505	-0,055	-0,019
-346,679	466,520	-0,056	-0,091
-345,664	536,336	-0,041	-0,071
-344,650	204,252	-0,066	-0,074
-343,635	-100,888	-0,036	-0,006
-342,620	-200,000	0,008	0,118
-341,606	-200,000	0,029	0,121
-340,591	-162,158	0,079	-0,003
-339,577	-12,062	-0,072	0,034
-338,562	37,715	-0,071	-0,045
-337,548	800,000	-0,017	-0,045
-336,533	-194,083	0,056	0,000
-335,518	35,819	-0,019	0,012
-334,504	800,000	0,054	-0,139
-333,489	-37,415	0,108	-0,042
-332,475	746,525	-0,045	-0,088
-331,460	-61,418	-0,106	-0,032
-330,445	29,118	-0,113	-0,069
-329,431	-200,000	-0,026	0,098
-328,416	-76,581	0,131	0,033
-327,402	-76,370	-0,039	0,010
-326,387	-72,676	-0,114	-0,030
-325,372	0,396	0,125	-0,064
-324,358	-10,094	-0,113	-0,054
-323,343	-69,077	0,160	-0,044
-322,329	103,784	0,075	-0,063
-321,314	-62,936	-0,044	0,013
-320,299	-69,323	0,013	0,004
-319,285	65,384	-0,111	0,081
-318,270	800,000	-0,017	0,053
-317,256	-97,504	0,075	-0,014
-316,241	-200,000	-0,020	-0,069
-315,226	-200,000	-0,017	0,094
-314,212	244,417	0,035	0,042
-313,197	-200,000	0,011	-0,061
-312,183	-200,000	-0,027	-0,165
-311,168	-200,000	-0,016	0,072
-310,153	-170,610	-0,075	0,002
-309,139	-107,456	-0,030	-0,005
-308,124	52,751	-0,112	0,077
-307,110	90,859	-0,058	0,047
-306,095	53,926	0,063	-0,044
-305,080	-91,746	0,013	-0,003
-304,066	-30,059	-0,005	-0,002
-303,051	-7,918	-0,023	-0,011
-302,037	-200,000	-0,031	-0,110
-301,022	-200,000	0,011	0,074
-300,008	-61,177	0,012	0,004
-298,993	-33,154	0,080	-0,032
-297,978	208,082	-0,131	0,148
-296,964	20,580	0,052	-0,030
-295,949	800,000	-0,036	-0,088
-294,935	298,281	0,030	-0,040
-293,920	-87,763	0,111	-0,024
-292,905	39,380	0,035	0,023
-291,891	173,535	0,051	0,053
-290,876	204,769	0,043	-0,049
-289,862	183,744	0,035	-0,037
-288,847	800,000	0,009	0,021
-287,832	-103,516	-0,037	0,006
-286,818	80,177	-0,139	-0,108
-285,803	-93,639	0,100	0,020
-284,789	49,496	0,076	-0,051
-283,774	-200,000	-0,017	0,156
-282,759	800,000	0,012	0,026
-281,745	118,444	0,058	-0,052
-280,730	665,576	-0,057	-0,106
-279,716	-200,000	-0,013	0,078
-278,701	800,000	0,076	0,162
-277,686	556,016	-0,028	-0,049
-276,672	165,186	0,062	0,063
-275,657	211,969	0,064	0,073
-274,643	-117,384	-0,187	0,024
-273,628	-200,000	0,003	0,074
-272,613	-200,000	-0,009	-0,175
-271,599	-59,428	0,086	-0,027
-270,584	7,172	0,091	0,049
-269,570	-20,667	0,006	0,003
-268,555	800,000	-0,011	0,023
-267,540	-21,205	-0,039	0,017
-266,526	-167,228	0,101	0,003
-265,511	-200,000	-0,003	-0,079
-264,497	800,000	0,021	0,062
-263,482	54,569	0,054	-0,038
-262,467	-131,611	-0,013	-0,001
-261,453	25,798	0,069	-0,041
-260,438	-200,000	-0,015	-0,124
-259,424	-33,470	-0,100	-0,040
-258,409	12,640	0,070	-0,039
-257,395	160,970	-0,024	-0,024
-256,380	164,551	0,211	0,215
-255,365	36,783	0,068	0,043
-254,351	-200,000	0,003	-0,072
-253,336	216,906	-0,024	-0,028
-252,322	93,392	-0,123	-0,100
-251,307	800,000	-0,037	0,086
-250,292	-200,000	0,013	0,063
-249,278	33,938	0,076	0,048
-248,263	314,395	0,060	0,081
-247,249	-200,000	-0,009	0,056
-246,234	717,191	-0,014	-0,028
-245,219	-200,000	-0,031	0,112
-244,205	-200,000	0,023	0,121
-243,190	-200,000	-0,006	0,031
-242,176	-119,873	0,073	-0,009
-241,161	-200,000	0,015	-0,126
-240,146	-200,000	-0,029	-0,095
-239,132	27,585	-0,091	0,055
-238,117	-105,813	-0,152	0,024
-237,103	-89,305	-0,161	-0,034
-236,088	270,094	-0,049	-0,062
-235,073	-200,000	0,024	0,229
-234,059	-5,234	0,072	0,035
-233,044	-66,220	-0,096	-0,027
-232,030	-200,000	0,010	0,078
-231,015	567,872	0,044	-0,077
-230,000	-200,000	0,011	-0,158
-228,986	-29,358	0,016	-0,006
-227,971	-200,000	0,021	0,170
-226,957	65,215	-0,039	-0,029
-225,942	800,000	-0,047	0,110
-224,927	417,959	-0,039	-0,060
-223,913	-89,022	-0,106	0,022
-222,898	215,074	0,139	-0,159
-221,884	-82,735	-0,097	-0,022
-220,869	132,643	0,144	0,134
-219,855	142,512	-0,032	0,030
-218,840	211,953	0,025	-0,028
-217,825	499,931	0,057	0,094
-216,811	64,112	0,036	-0,026
-215,796	-200,000	-0,010	0,099
-214,782	-96,581	-0,106	0,020
-213,767	-200,000	0,002	0,012
-212,752	62,414	-0,146	0,105
-211,738	-99,730	0,054	-0,010
-210,723	-104,593	-0,076	-0,012
-209,709	48,264	-0,097	-0,065
-208,694	-84,223	0,095	-0,021
-207,679	-200,000	0,034	-0,111
-206,665	136,634	-0,048	0,045
-205,650	100,614	0,138	0,115
-204,636	-200,000	-0,001	0,194
-203,621	-200,000	0,004	-0,045
-202,606	-66,915	-0,197	-0,055
-201,592	46,726	-0,100	-0,067
-200,577	-116,988	0,127	0,016
-199,563	8,734	-0,035	0,019
-198,548	5,751	-0,023	0,012
-197,533	11,777	0,064	-0,035
-196,519	-200,000	-0,029	0,112
-195,504	204,749	0,069	-0,077
-194,490	800,000	-0,016	-0,051
-193,475	-144,408	-0,091	-0,006
-192,460	304,005	0,022	-0,030
-191,446	431,373	-0,029	-0,045
-190,431	405,073	0,068	0,103
-189,417	256,337	-0,057	0,071
-188,402	-20,495	0,029	-0,013
-187,387	15,458	-0,027	0,015
-186,373	-150,193	-0,071	-0,004
-185,358	-200,000	0,003	0,016
-184,344	547,619	0,028	0,048
-183,329	3,273	0,060	-0,031
-182,315	-200,000	0,022	0,085
-181,300	-16,135	-0,052	-0,023
-180,285	-6,284	-0,099	-0,048
-179,271	-200,000	0,005	0,050
-178,256	-133,904	0,077	0,007
-177,242	-106,720	0,038	-0,006
-176,227	87,239	0,050	-0,040
-175,212	150,130	-0,056	0,054
-174,198	-96,848	-0,051	0,010
-173,183	-200,000	-0,003	-0,154
-172,169	-200,000	0,021	0,084
-171,154	-200,000	-0,014	0,078
-170,139	-90,161	-0,054	-0,011
-169,125	89,126	-0,045	-0,036
-168,110	-200,000	0,005	-0,041
-167,096	800,000	0,042	0,086
-166,081	800,000	-0,036	0,102
-165,066	-115,303	-0,102	-0,014
-164,052	-15,446	0,104	-0,047
-163,037	59,516	0,056	-0,039
-162,023	3,712	0,060	-0,032
-161,008	225,612	-0,085	0,099
-159,993	-2,637	0,092	0,046
-158,979	191,817	0,038	-0,041
-157,964	114,252	0,054	-0,047
-156,950	800,000	0,053	-0,107
-155,935	-200,000	0,022	-0,077
-154,920	-85,946	0,225	0,050
-153,906	82,294	0,124	0,096
-152,891	652,544	-0,027	-0,050
-151,877	-41,291	-0,097	-0,036
-150,862	23,111	-0,045	-0,026
-149,847	-200,000	-0,000	-0,019
-148,833	10,351	0,036	0,020
-147,818	17,767	0,107	-0,061
-146,804	-89,403	0,091	0,019
-145,789	305,491	-0,013	-0,017
-144,775	6,310	-0,086	0,046
-143,760	243,172	-0,011	-0,013
-142,745	248,837	0,032	-0,038
-141,731	-200,000	0,023	-0,081
-140,716	5,557	0,083	0,044
-139,702	-50,928	0,063	0,021
-138,687	-138,129	-0,180	0,014
-137,672	182,670	0,031	-0,032
-136,658	800,000	-0,083	-0,184
-135,643	-74,189	-0,082	-0,021
-134,629	-200,000	0,008	-0,039
-133,614	494,803	0,046	0,076
-132,599	800,000	0,050	0,126
-131,585	800,000	0,028	0,077
-130,570	800,000	-0,039	0,103
-129,556	159,880	0,043	0,043
-128,541	800,000	-0,022	-0,055
-127,526	800,000	0,014	0,034
-126,512	728,408	0,010	0,019
-125,497	60,643	0,064	0,045
-124,483	273,242	-0,031	0,040
-123,468	114,211	0,098	-0,085
-122,453	708,080	0,071	-0,135
-121,439	-61,555	0,076	-0,023
-120,424	589,594	-0,013	-0,023
-119,410	800,000	0,067	0,170
-118,395	-51,895	0,215	0,071
-117,380	668,302	0,053	0,099
-116,366	-200,000	-0,007	0,076
-115,351	-200,000	0,021	-0,112
-114,337	37,832	-0,016	-0,010
-113,322	-200,000	0,009	-0,126
-112,307	555,230	0,056	-0,096
-111,293	59,674	0,037	0,026
-110,278	-200,000	0,019	-0,061
-109,264	231,233	-0,073	0,086
-108,249	12,400	0,073	0,040
-107,234	800,000	-0,039	-0,095
-106,220	496,921	0,026	0,042
-105,205	48,043	-0,108	0,072
-104,191	596,522	0,023	0,041
-103,176	-34,453	-0,103	0,040
-102,162	800,000	0,074	0,186
-101,147	10,025	0,135	-0,073
-100,132	-200,000	-0,023	-0,088
-99,118	172,220	-0,077	-0,080
-98,103	-80,851	-0,055	-0,013
-97,089	-97,072	0,041	-0,008
-96,074	220,084	-0,063	-0,072
-95,059	44,355	0,109	0,071
-94,045	-200,000	-0,026	0,108
-93,030	178,086	-0,095	-0,099
-92,016	79,518	-0,134	-0,103
-91,001	800,000	0,069	0,143
-89,986	152,804	-0,106	0,103
-88,972	-49,232	-0,103	-0,035
-87,957	332,677	0,020	-0,027
-86,943	-37,174	0,174	-0,066
-85,928	215,953	-0,147	-0,167
-84,913	-188,311	0,074	-0,001
-83,899	-10,859	0,075	-0,035
-82,884	-200,000	0,003	0,086
-81,870	-111,818	0,108	0,015
-80,855	-60,315	0,077	-0,023
-79,840	233,519	-0,075	0,088
-78,826	-183,211	0,106	-0,001
-77,811	-61,625	0,090	-0,027
-76,797	171,320	-0,070	-0,072
-75,782	800,000	0,040	0,115
-74,767	800,000	-0,012	0,029
-73,753	218,509	-0,045	0,051
-72,738	-137,411	0,073	0,006
-71,724	-200,000	0,018	-0,061
-70,709	800,000	-0,031	0,068
-69,694	193,831	0,098	-0,107
-68,680	800,000	-0,021	0,051
-67,665	-200,000	-0,003	0,066
-66,651	-54,301	-0,048	-0,015
-65,636	800,000	-0,066	-0,178
-64,622	-200,000	0,024	-0,125
-63,607	-130,645	0,033	0,003
-62,592	-200,000	-0,010	0,043
-61,578	342,276	-0,005	-0,007
-60,563	-154,394	0,131	-0,006
-59,549	0,723	-0,092	0,047
-58,534	6,853	-2,005	-1,063
-57,519	-200,000	-0,201	-0,930
-56,505	-200,000	-1,309	-5,055
-55,490	48,582	0,835	0,558
-54,476	800,000	5,255	11,842
-53,461	-200,000	18,305	291,583
-52,446	800,000	730,964	2234,063
-51,432	546,343	1641,178	2814,590
-50,417	106,575	1626,457	1377,541
-49,403	71,815	1279,189	948,965
-48,388	29,138	1022,146	618,137
-47,373	18,208	984,637	559,665
-46,359	16,429	972,247	546,813
-45,344	13,358	968,415	534,666
-44,330	13,592	966,995	534,621
-43,315	13,187	964,680	532,006
-42,300	13,043	963,843	531,060
-41,286	13,052	962,886	530,540
-40,271	13,046	961,958	529,989
-39,257	13,084	960,848	529,478
-38,242	13,069	960,277	529,095
-37,227	13,135	959,244	528,715
-36,213	13,098	958,423	528,125
-35,198	13,050	957,558	527,471
-34,184	13,062	956,848	527,097
-33,169	12,956	955,845	526,184
-32,154	13,112	954,913	526,150
-31,140	13,165	953,850	525,715
-30,125	13,151	953,223	525,303
-29,111	13,100	952,481	524,709
-28,096	13,118	951,908	524,431
-27,082	13,101	951,086	523,903
-26,067	13,101	950,457	523,537
-25,052	13,069	949,726	523,011
-24,038	13,004	949,098	522,438
-23,023	13,083	948,309	522,234
-22,009	13,184	947,792	522,250
-20,994	13,089	947,304	521,656
-19,979	13,098	946,507	521,226
-18,965	13,048	946,083	520,815
-17,950	13,128	945,448	520,698
-16,936	13,033	944,690	519,956
-15,921	13,026	943,875	519,466
-14,906	12,940	943,056	518,723
-13,892	13,004	942,457	518,574
-12,877	13,000	941,891	518,229
-11,863	12,913	941,276	517,597
-10,848	12,966	940,794	517,478
-9,833	13,091	940,440	517,658
-8,819	13,084	939,648	517,180
-7,804	13,029	939,197	516,738
-6,790	13,060	938,590	516,479
-5,775	13,015	938,023	516,007
-4,760	13,033	937,269	515,628
-3,746	13,038	936,716	515,319
-2,731	12,884	935,985	514,412
-1,717	12,830	935,121	513,747
-0,702	12,822	934,536	513,380
0,313	12,687	933,914	513,391
1,327	16,023	932,545	523,025
2,342	25,031	804,368	475,246
3,356	21,822	508,605	295,050
4,371	1,468	382,148	195,539
5,386	-0,406	365,843	184,856
6,400	-0,967	360,253	181,330
7,415	-0,580	358,114	180,706
8,429	-0,665	356,735	179,892
9,444	-0,546	355,518	179,405
10,459	-0,557	355,056	179,144
11,473	-0,406	354,260	178,907
12,488	-0,449	353,865	178,640
13,502	-0,271	353,199	178,501
14,517	-0,061	352,735	178,502
15,531	0,258	352,318	178,656
16,546	0,266	351,798	178,385
17,561	0,056	351,673	178,056
18,575	0,231	351,085	177,951
19,590	0,124	350,787	177,657
20,604	0,294	350,446	177,670
21,619	0,169	349,957	177,257
22,634	0,388	349,660	177,351
23,648	0,129	349,380	176,886
24,663	0,104	348,832	176,563
25,677	0,134	348,720	176,527
26,692	0,208	348,373	176,422
27,707	0,388	347,924	176,391
28,721	0,276	347,707	176,134
29,736	0,237	347,301	175,867
30,750	0,073	347,086	175,550
31,765	0,147	346,861	175,507
32,780	0,326	346,513	175,525
33,794	0,124	346,183	175,106
34,809	0,115	345,991	174,982
35,823	0,138	345,704	174,848
36,838	0,096	345,325	174,592
37,853	0,179	344,959	174,489
38,867	0,179	344,695	174,340
39,882	0,282	344,543	174,367
40,896	0,267	344,097	174,109
41,911	0,395	343,854	174,118
42,926	0,182	343,620	173,737
43,940	0,167	343,482	173,635
44,955	0,153	343,099	173,409
45,969	0,245	342,964	173,432
46,984	0,262	342,633	173,269
47,999	-0,007	342,339	172,794
49,013	0,063	341,981	172,679
50,028	-0,087	341,792	172,395
51,042	-0,108	341,410	172,162
52,057	-0,167	341,076	171,910
53,071	-0,085	340,842	171,872
54,086	0,111	340,604	171,962
55,101	0,104	340,545	171,908
56,115	0,024	340,273	171,664
57,130	0,267	339,896	171,737
58,144	0,182	339,700	171,526
59,159	0,170	339,290	171,289
60,174	0,079	338,948	170,998
61,188	0,242	338,768	171,077
62,203	0,098	338,677	170,853
63,217	0,333	338,349	170,939
64,232	0,231	338,073	170,669
65,247	0,079	337,646	170,265
66,261	-0,022	337,411	170,016
67,276	0,154	337,281	170,135
68,290	0,085	336,983	169,891
69,305	-0,056	336,635	169,542
70,320	0,224	336,378	169,714
71,334	0,205	336,260	169,618
72,349	0,037	335,971	169,267
73,363	0,042	335,788	169,165
74,378	0,146	335,414	169,079
75,393	0,199	335,102	168,967
76,407	0,050	334,918	168,690
77,422	0,115	334,782	168,681
78,436	0,254	334,384	168,621
79,451	0,117	334,037	168,277
80,466	0,098	333,777	168,110
81,480	0,184	333,528	168,066
82,495	0,232	333,344	168,012
83,509	0,289	333,170	167,973
84,524	0,299	332,884	167,825
85,539	0,303	332,605	167,674
86,553	0,188	332,554	167,504
87,568	0,183	332,093	167,252
88,582	0,315	331,834	167,254
89,597	0,314	331,703	167,172
90,611	0,272	331,417	166,966
91,626	0,105	331,325	166,718
92,641	0,234	331,111	166,740
93,655	0,315	330,727	166,622
94,670	0,194	330,443	166,330
95,684	0,095	330,342	166,154
96,699	0,219	330,051	166,130
97,714	0,287	329,741	166,034
98,728	0,079	329,542	165,689
99,743	0,237	329,373	165,764
100,757	0,085	329,120	165,454
101,772	0,137	328,876	165,374
102,787	0,226	328,366	165,202
103,801	0,113	328,378	165,068
104,816	0,232	327,992	164,990
105,830	0,188	327,873	164,868
106,845	0,140	327,666	164,696
107,860	0,170	327,557	164,659
108,874	0,070	327,205	164,357
109,889	0,232	326,881	164,358
110,903	0,043	326,700	164,045
111,918	-0,008	326,406	163,827
112,933	0,152	326,053	163,810
113,947	-0,032	326,046	163,591
114,962	0,064	325,755	163,536
115,976	0,227	325,596	163,618
116,991	0,198	325,337	163,443
118,006	0,043	325,169	163,175
119,020	0,247	324,891	163,242
120,035	0,217	324,808	163,153
121,049	0,109	324,659	162,947
122,064	0,098	324,353	162,766
123,079	0,081	324,101	162,608
124,093	0,107	323,828	162,484
125,108	0,081	323,631	162,342
126,122	0,075	323,353	162,182
127,137	0,260	322,981	162,181
128,151	0,158	322,894	162,013
129,166	0,281	322,613	161,990
130,181	0,178	322,454	161,784
131,195	0,181	322,092	161,592
132,210	0,237	321,850	161,516
133,224	0,076	321,689	161,248
134,239	0,217	321,429	161,255
135,254	0,080	321,284	161,020
136,268	0,132	320,971	160,905
137,283	0,095	320,749	160,740
138,297	-0,007	320,567	160,524
139,312	-0,049	320,235	160,299
140,327	-0,046	319,930	160,135
141,341	0,171	319,802	160,289
142,356	0,030	319,632	160,039
143,370	0,247	319,366	160,123
144,385	0,199	319,248	159,999
145,400	0,265	319,021	159,941
146,414	0,034	318,813	159,576
147,429	0,220	318,517	159,612
148,443	0,234	318,304	159,505
149,458	0,150	318,118	159,309
150,473	0,183	317,809	159,175
151,487	0,178	317,651	159,076
152,502	0,282	317,339	159,016
153,516	0,363	317,121	158,979
154,531	0,066	316,891	158,534
155,546	0,213	316,651	158,556
156,560	0,172	316,550	158,448
157,575	0,223	316,188	158,306
158,589	0,066	316,021	158,043
159,604	0,293	315,782	158,149
160,619	0,216	315,702	158,014
161,633	0,336	315,425	157,987
162,648	0,236	315,237	157,774
163,662	0,256	314,999	157,662
164,677	0,202	314,864	157,523
165,692	0,281	314,703	157,512
166,706	0,347	314,401	157,416
167,721	0,367	314,229	157,337
168,735	0,367	313,976	157,196
169,750	0,306	313,659	156,959
170,764	0,108	313,720	156,768
171,779	0,202	313,415	156,700
172,794	0,278	313,284	156,701
173,808	0,321	313,054	156,616
174,823	0,157	312,656	156,232
175,837	0,084	312,471	156,049
176,852	0,019	312,349	155,907
177,867	0,175	312,013	155,887
178,881	0,269	311,886	155,908
179,896	0,198	311,675	155,715
180,910	0,366	311,412	155,744
181,925	0,208	311,289	155,505
182,940	0,078	311,056	155,239
183,954	0,153	310,959	155,255
184,969	0,244	310,607	155,159
185,983	0,266	310,537	155,133
186,998	0,293	310,251	155,005
188,013	0,211	310,070	154,817
189,027	0,089	309,930	154,606
190,042	0,096	309,596	154,433
191,056	0,125	309,345	154,324
192,071	-0,051	309,219	154,065
193,086	-0,032	308,960	153,943
194,100	0,131	308,687	153,961
195,115	0,229	308,619	154,014
196,129	0,115	308,379	153,763
197,144	0,125	308,012	153,576
198,159	0,150	307,856	153,511
199,173	0,212	307,514	153,390
200,188	0,023	307,256	153,054
201,202	-0,058	307,117	152,889
202,217	0,117	306,982	152,987
203,232	0,028	306,774	152,779
204,246	0,013	306,596	152,661
205,261	0,242	306,365	152,766
206,275	0,247	306,021	152,586
207,290	0,142	305,929	152,419
208,304	0,316	305,741	152,489
209,319	0,200	305,617	152,296
210,334	0,258	305,287	152,177
211,348	0,060	305,308	151,973
212,363	0,273	304,933	151,988
213,377	0,344	304,852	152,007
214,392	0,153	304,706	151,726
215,407	0,194	304,493	151,648
216,421	0,231	304,192	151,522
217,436	0,252	304,064	151,466
218,450	0,194	303,789	151,257
219,465	0,151	303,570	151,092
220,480	0,004	303,447	150,868
221,494	0,162	303,228	150,906
222,509	0,082	303,116	150,756
223,523	0,160	302,873	150,699
224,538	0,159	302,582	150,540
225,553	0,161	302,487	150,482
226,567	0,195	302,213	150,366
227,582	0,122	302,046	150,196
228,596	0,083	301,855	150,049
229,611	0,025	301,527	149,815
230,626	0,203	301,573	150,002
231,640	0,141	301,325	149,804
232,655	0,280	300,975	149,755
233,669	-0,039	300,923	149,396
234,684	0,140	300,768	149,486
235,699	0,179	300,569	149,412
236,713	0,113	300,387	149,243
237,728	0,281	300,009	149,209
238,742	0,022	299,908	148,888
239,757	0,073	299,618	148,781
240,772	-0,012	299,377	148,563
241,786	-0,057	299,302	148,468
242,801	-0,088	299,111	148,329
243,815	-0,039	298,991	148,306
244,830	0,034	298,702	148,221
245,844	0,055	298,566	148,161
246,859	-0,076	298,331	147,902
247,874	-0,134	298,055	147,694
248,888	-0,066	297,769	147,606
249,903	-0,132	297,565	147,427
250,917	0,081	297,422	147,554
251,932	-0,234	297,267	147,153
252,947	-0,536	296,883	146,652
253,961	-1,131	296,317	145,774
254,976	-0,511	296,546	146,484
255,990	0,675	296,829	147,778
257,005	1,356	297,125	148,582
258,020	2,756	297,502	150,137
259,034	3,515	297,457	150,848
260,049	3,696	297,439	151,003
261,063	3,747	297,247	150,942
262,078	3,912	297,206	151,070
263,093	4,223	297,008	151,262
264,107	4,340	296,778	151,245
265,122	4,449	296,916	151,409
266,136	4,732	296,616	151,520
267,151	4,677	296,411	151,348
268,166	4,465	296,275	151,058
269,180	4,473	295,998	150,911
270,195	4,503	295,854	150,853
271,209	4,582	295,708	150,842
272,224	4,436	295,322	150,490
273,239	4,107	295,224	150,106
274,253	4,120	294,866	149,922
275,268	4,278	294,712	149,985
276,282	4,301	294,521	149,897
277,297	4,275	294,368	149,780
278,312	4,622	294,179	150,007
279,326	4,621	294,036	149,920
280,341	4,507	293,924	149,739
281,355	4,198	293,620	149,272
282,370	4,141	293,460	149,122
283,384	4,366	293,147	149,167
284,399	4,316	293,121	149,092
285,414	4,276	292,978	148,967
286,428	4,192	292,659	148,711
287,443	4,181	292,338	148,523
288,457	4,091	292,207	148,357
289,472	3,984	292,030	148,151
290,487	3,922	291,806	147,965
291,501	3,941	291,555	147,843
292,516	4,148	291,408	147,954
293,530	3,995	291,256	147,717
294,545	4,004	290,996	147,580
295,560	3,936	290,909	147,458
296,574	3,770	290,643	147,150
297,589	3,595	290,480	146,888
298,603	3,709	290,205	146,844
299,618	3,874	289,976	146,873
300,633	3,886	289,877	146,821
301,647	3,751	289,834	146,657
302,662	4,076	289,516	146,793
303,676	4,163	289,493	146,851
304,691	4,184	289,242	146,731
305,706	4,273	289,172	146,766
306,720	4,245	289,008	146,644
307,735	4,235	288,796	146,513
308,749	4,326	288,549	146,462
309,764	4,304	288,515	146,411
310,779	4,238	288,107	146,128
311,793	4,251	287,851	145,997
312,808	4,149	287,807	145,865
313,822	4,191	287,567	145,771
314,837	4,311	287,380	145,776
315,852	4,180	287,277	145,587
316,866	4,262	287,107	145,566
317,881	4,092	286,886	145,280
318,895	4,097	286,763	145,210
319,910	4,105	286,438	145,039
320,925	4,139	286,214	144,945
321,939	4,213	286,005	144,896
322,954	4,403	285,998	145,058
323,968	4,231	285,977	144,873
324,983	4,403	285,588	144,824
325,997	4,371	285,381	144,677
327,012	4,389	285,328	144,653
328,027	4,330	285,128	144,485
329,041	4,296	284,900	144,324
330,056	4,396	284,617	144,262
331,070	4,189	284,657	144,075
332,085	4,328	284,358	144,041
333,100	4,462	284,166	144,056
334,114	4,368	284,003	143,873
335,129	4,265	283,831	143,676
336,143	4,290	283,512	143,525
337,158	4,456	283,440	143,631
338,173	4,420	283,297	143,512
339,187	4,371	283,066	143,336
340,202	4,174	282,939	143,077
341,216	4,448	282,701	143,197
342,231	4,222	282,685	142,967
343,246	4,118	282,471	142,750
344,260	4,290	282,260	142,790
345,275	4,335	282,201	142,789
346,289	4,591	281,845	142,832
347,304	4,462	281,716	142,635
348,319	4,471	281,524	142,534
349,333	4,532	281,268	142,448
350,348	4,359	281,150	142,215
351,362	4,427	280,988	142,184
352,377	4,365	280,773	142,006
353,392	4,336	280,662	141,909
354,406	4,217	280,423	141,667
355,421	194,474	1345,363	1413,399
356,435	157,384	1475,076	1413,389
