DTS Sentinel unit serial number:	SN410029Multiplexer serial number:	ORYXHardware model number:	OX2-SRSoftware version number:	ORYX F/W v4,00 Oryx Data Collector v3.7.2.0data status	okinstallation	B4 Nyhavnadifferential loss correction	single-endedforward channel	channel 2reverse channel	N/Adate	2023/12/18time	15:25:14forward acquisition time	300,00reverse acquisition time	0,00gamma	499,1914k internal	0,3161k external	0,3161temperature offset calibration	1,0000default loss term (dB/km)	0,3820temperature slope calibration	1,0000multiplexer offset coefficient	1,0000multiplexer slope coefficient	1,0000fibre end	0,00T internal ref (°C)	14,64T ext. ref 1 (°C)	7,10T ext. ref 2 (°C)	7,20length (m)	temperature (°C)	Stokes	anti-Stokes-744,400	800,000	0,032	-0,098
-743,385	-91,323	-0,220	0,046
-742,371	-5,573	0,127	0,064
-741,356	40,980	-0,325	0,216
-740,342	0,183	0,120	-0,063
-739,327	-103,459	-0,281	0,048
-738,312	10,279	0,064	0,035
-737,298	-97,862	-0,308	-0,058
-736,283	46,069	0,120	0,082
-735,269	15,233	-0,209	0,121
-734,254	-144,892	0,154	0,010
-733,239	-78,230	-0,306	-0,077
-732,225	62,289	0,046	0,034
-731,210	-110,807	0,077	-0,012
-730,196	156,083	-0,058	-0,059
-729,181	-8,461	-0,132	-0,065
-728,167	65,758	0,124	-0,092
-727,152	-200,000	-0,024	-0,097
-726,137	45,668	-0,104	-0,070
-725,123	800,000	-0,051	-0,124
-724,108	-23,584	-0,106	-0,046
-723,094	-61,060	-0,171	-0,053
-722,079	-75,566	-0,193	-0,050
-721,064	800,000	-0,056	-0,119
-720,050	-45,784	0,126	0,045
-719,035	-200,000	-0,028	0,124
-718,021	-129,722	-0,138	-0,014
-717,006	-181,822	-0,177	0,002
-715,991	140,323	-0,062	-0,060
-714,977	-200,000	-0,010	-0,051
-713,962	-200,000	0,009	-0,057
-712,948	-142,744	0,039	0,003
-711,933	800,000	-0,024	-0,058
-710,918	182,953	0,014	-0,016
-709,904	-100,275	-0,113	0,020
-708,889	459,322	-0,107	-0,176
-707,875	352,295	-0,041	0,060
-706,860	-200,000	-0,010	-0,040
-705,845	-200,000	-0,037	-0,156
-704,831	469,326	-0,048	-0,080
-703,816	800,000	0,023	-0,066
-702,802	-200,000	0,009	-0,083
-701,787	-92,675	-0,106	-0,022
-700,772	331,246	0,078	0,110
-699,758	253,613	0,014	0,017
-698,743	609,488	0,078	-0,145
-697,729	-81,271	-0,032	0,008
-696,714	664,447	0,084	0,161
-695,699	-90,065	0,114	-0,024
-694,685	133,287	-0,075	-0,072
-693,670	800,000	-0,018	-0,044
-692,656	-200,000	0,028	-0,115
-691,641	60,118	-0,078	0,057
-690,627	-200,000	-0,012	-0,124
-689,612	270,390	0,042	0,054
-688,597	168,208	-0,067	-0,070
-687,583	800,000	-0,020	-0,064
-686,568	236,362	0,055	-0,067
-685,554	430,229	-0,081	-0,130
-684,539	-48,739	0,036	-0,013
-683,524	51,978	-0,033	-0,023
-682,510	-69,358	-0,120	-0,034
-681,495	56,553	-0,058	0,041
-680,481	-110,385	-0,106	0,016
-679,466	410,333	-0,022	0,034
-678,451	-200,000	-0,002	-0,051
-677,437	-200,000	-0,001	0,054
-676,422	-83,005	-0,107	0,025
-675,408	-25,308	0,043	0,019
-674,393	13,273	-0,159	-0,090
-673,378	-24,700	-0,053	0,023
-672,364	800,000	-0,026	-0,073
-671,349	86,525	-0,072	0,058
-670,335	-200,000	-0,014	-0,073
-669,320	220,836	0,114	0,134
-668,305	88,047	-0,157	0,127
-667,291	670,230	-0,081	-0,154
-666,276	800,000	0,040	-0,082
-665,262	-200,000	-0,040	-0,176
-664,247	228,254	-0,138	-0,165
-663,232	-200,000	-0,002	0,074
-662,218	70,263	0,085	0,065
-661,203	47,392	0,019	0,013
-660,189	-112,754	-0,093	0,013
-659,174	76,941	-0,032	0,025
-658,159	-200,000	-0,026	-0,114
-657,145	105,774	-0,120	0,104
-656,130	-200,000	0,001	-0,101
-655,116	-68,598	0,052	-0,015
-654,101	105,101	-0,056	0,049
-653,086	-75,534	0,127	-0,033
-652,072	800,000	-0,069	-0,213
-651,057	-16,530	-0,042	0,019
-650,043	-30,284	-0,118	-0,049
-649,028	481,203	-0,024	0,041
-648,014	-200,000	-0,022	0,104
-646,999	58,130	0,026	0,019
-645,984	-109,219	0,068	0,010
-644,970	52,514	-0,166	-0,116
-643,955	-200,000	-0,014	-0,048
-642,941	-50,957	0,030	-0,010
-641,926	-200,000	-0,026	-0,123
-640,911	-78,210	-0,077	-0,019
-639,897	30,291	-0,084	0,052
-638,882	216,769	0,022	-0,025
-637,868	57,787	-0,014	0,010
-636,853	2,883	0,050	-0,026
-635,838	183,637	0,098	0,106
-634,824	-131,460	0,039	-0,004
-633,809	-200,000	-0,010	0,037
-632,795	-200,000	0,002	0,128
-631,780	-200,000	0,004	-0,050
-630,765	800,000	-0,032	0,078
-629,751	-200,000	-0,008	-0,103
-628,736	800,000	-0,050	-0,109
-627,722	299,408	-0,041	-0,055
-626,707	-12,104	0,047	0,023
-625,692	-200,000	0,042	0,139
-624,678	90,004	-0,019	-0,016
-623,663	-6,445	-0,085	-0,042
-622,649	-42,831	0,052	-0,019
-621,634	262,752	-0,104	-0,132
-620,619	800,000	0,005	-0,014
-619,605	-200,000	0,018	0,068
-618,590	-78,665	0,089	-0,022
-617,576	-200,000	0,051	0,182
-616,561	-200,000	0,006	-0,020
-615,546	675,737	-0,022	0,042
-614,532	374,275	-0,056	-0,084
-613,517	-200,000	-0,006	0,038
-612,503	-200,000	0,022	-0,095
-611,488	800,000	-0,033	0,089
-610,474	-200,000	0,018	0,104
-609,459	800,000	-0,020	-0,055
-608,444	-73,958	-0,052	0,014
-607,430	800,000	-0,023	0,065
-606,415	-12,213	0,074	-0,035
-605,401	-182,173	0,085	-0,001
-604,386	-113,114	-0,122	-0,017
-603,371	110,756	-0,092	-0,081
-602,357	-24,485	-0,103	-0,045
-601,342	171,936	-0,059	-0,062
-600,328	800,000	0,026	0,067
-599,313	-30,999	0,026	0,011
-598,298	-200,000	-0,013	-0,054
-597,284	-200,000	-0,006	-0,064
-596,269	-200,000	0,009	0,072
-595,255	280,428	0,033	0,043
-594,240	791,158	-0,042	-0,086
-593,225	451,376	-0,040	-0,065
-592,211	212,237	-0,037	-0,043
-591,196	250,487	-0,066	-0,082
-590,182	-108,728	0,141	-0,022
-589,167	57,364	0,110	-0,078
-588,152	-200,000	-0,001	-0,041
-587,138	-103,402	-0,198	-0,034
-586,123	24,300	-0,028	-0,017
-585,109	-200,000	0,018	-0,063
-584,094	43,697	0,132	-0,088
-583,079	410,772	-0,037	-0,058
-582,065	-42,004	-0,042	0,016
-581,050	-200,000	0,011	0,101
-580,036	800,000	-0,038	0,100
-579,021	-149,032	-0,176	-0,010
-578,006	-200,000	0,022	-0,164
-576,992	17,567	-0,130	-0,075
-575,977	577,639	-0,060	-0,107
-574,963	-22,369	0,095	-0,042
-573,948	-44,132	0,090	0,033
-572,934	85,460	-0,037	0,030
-571,919	800,000	-0,069	-0,199
-570,904	-122,316	-0,110	-0,013
-569,890	431,521	0,040	-0,064
-568,875	-47,072	0,067	0,024
-567,861	69,246	0,090	-0,068
-566,846	-200,000	0,030	0,116
-565,831	-131,955	-0,049	-0,005
-564,817	250,157	0,012	-0,015
-563,802	800,000	-0,021	-0,059
-562,788	224,083	-0,036	0,043
-561,773	30,208	0,063	-0,039
-560,758	-56,182	-0,126	0,041
-559,744	327,027	0,092	0,130
-558,729	800,000	-0,085	-0,172
-557,715	-200,000	0,016	-0,053
-556,700	49,692	0,042	-0,029
-555,685	378,668	0,157	-0,236
-554,671	102,958	0,090	0,077
-553,656	0,633	-0,160	-0,083
-552,642	-200,000	-0,008	-0,075
-551,627	-200,000	-0,036	0,122
-550,612	626,492	0,005	-0,010
-549,598	-200,000	0,009	-0,071
-548,583	-142,275	-0,034	-0,002
-547,569	453,586	-0,043	0,070
-546,554	-128,317	-0,050	-0,005
-545,539	800,000	0,051	0,123
-544,525	67,300	-0,088	-0,066
-543,510	-200,000	-0,001	0,083
-542,496	240,572	-0,067	0,081
-541,481	292,628	-0,098	-0,131
-540,466	-19,890	-0,048	-0,022
-539,452	133,583	-0,081	0,077
-538,437	238,928	-0,043	-0,052
-537,423	-200,000	0,009	0,049
-536,408	119,477	-0,047	0,043
-535,393	-200,000	-0,003	0,079
-534,379	800,000	0,030	-0,063
-533,364	397,233	-0,026	0,039
-532,350	398,294	-0,019	0,029
-531,335	756,322	0,099	0,197
-530,321	561,817	-0,018	0,031
-529,306	-200,000	-0,009	-0,096
-528,291	-200,000	0,006	0,038
-527,277	282,460	-0,082	-0,107
-526,262	-105,631	0,050	-0,008
-525,248	800,000	0,022	0,063
-524,233	-115,920	0,369	-0,050
-523,218	-30,498	-0,033	-0,013
-522,204	-35,077	0,024	-0,009
-521,189	739,018	-0,035	-0,069
-520,175	-200,000	0,008	0,036
-519,160	-200,000	0,003	0,034
-518,145	-200,000	-0,009	0,042
-517,131	800,000	-0,054	0,128
-516,116	-47,436	0,070	-0,025
-515,102	40,055	0,096	0,063
-514,087	-18,559	-0,153	-0,069
-513,072	260,252	-0,028	-0,035
-512,058	-140,033	-0,033	0,003
-511,043	-200,000	0,016	-0,075
-510,029	-200,000	0,011	0,102
-509,014	-200,000	-0,027	0,121
-507,999	-77,154	0,058	0,015
-506,985	368,437	0,068	-0,100
-505,970	14,355	0,054	-0,030
-504,956	-129,713	0,065	0,006
-503,941	56,788	0,069	0,049
-502,926	58,232	0,065	-0,047
-501,912	89,100	0,105	0,086
-500,897	-86,124	-0,040	-0,009
-499,883	-83,116	-0,074	-0,017
-498,868	17,824	-0,120	-0,069
-497,853	-146,651	0,108	-0,007
-496,839	800,000	0,046	0,147
-495,824	-55,220	0,119	0,039
-494,810	-65,775	0,102	-0,030
-493,795	122,101	-0,067	0,061
-492,781	-48,314	0,039	-0,014
-491,766	-148,163	0,045	0,003
-490,751	163,667	-0,062	-0,064
-489,737	800,000	0,029	-0,067
-488,722	129,808	-0,079	0,074
-487,708	-97,975	0,050	-0,009
-486,693	67,830	-0,020	-0,015
-485,678	161,945	-0,070	0,072
-484,664	-200,000	-0,062	-0,214
-483,649	104,479	-0,117	-0,100
-482,635	800,000	-0,035	-0,110
-481,620	-200,000	-0,004	-0,079
-480,605	800,000	0,037	0,111
-479,591	-11,799	0,030	0,014
-478,576	127,269	0,134	0,124
-477,562	220,104	-0,127	0,149
-476,547	173,917	-0,050	-0,052
-475,532	298,929	0,015	-0,020
-474,518	389,129	0,036	0,054
-473,503	100,243	-0,048	0,040
-472,489	-109,427	-0,075	0,011
-471,474	146,817	-0,090	0,089
-470,459	-47,954	-0,103	-0,036
-469,445	800,000	0,045	-0,113
-468,430	-35,487	-0,038	-0,015
-467,416	-157,264	-0,046	0,002
-466,401	-20,736	0,123	-0,055
-465,386	-200,000	0,002	-0,040
-464,372	-200,000	-0,011	-0,067
-463,357	-41,502	0,030	-0,011
-462,343	800,000	-0,017	0,040
-461,328	-200,000	0,006	-0,040
-460,313	4,851	-0,038	0,020
-459,299	-51,546	0,042	0,014
-458,284	46,882	0,114	0,077
-457,270	-57,178	-0,036	-0,011
-456,255	-27,261	-0,174	-0,073
-455,241	77,858	0,087	0,067
-454,226	-200,000	0,008	0,087
-453,211	-200,000	0,029	-0,097
-452,197	97,966	0,108	-0,090
-451,182	-177,291	0,175	-0,003
-450,168	773,447	-0,050	-0,099
-449,153	121,594	-0,060	-0,055
-448,138	-200,000	0,005	0,039
-447,124	-3,450	-0,096	-0,049
-446,109	-85,913	-0,015	-0,003
-445,095	-52,004	-0,041	-0,014
-444,080	350,888	-0,035	0,050
-443,065	517,241	-0,061	0,104
-442,051	-134,643	-0,151	-0,013
-441,036	770,865	-0,052	-0,103
-440,022	5,389	0,090	0,048
-439,007	336,120	0,015	-0,021
-437,992	-128,071	-0,058	0,006
-436,978	-200,000	-0,010	0,145
-435,963	40,893	0,031	0,020
-434,949	307,523	0,070	0,095
-433,934	800,000	0,035	0,091
-432,919	310,810	-0,061	0,083
-431,905	-90,480	0,142	0,030
-430,890	-27,505	0,115	-0,048
-429,876	-110,913	-0,072	-0,011
-428,861	-137,590	0,118	-0,010
-427,846	-112,903	0,093	-0,013
-426,832	267,425	-0,068	0,087
-425,817	-200,000	0,017	-0,185
-424,803	71,666	-0,041	0,031
-423,788	-9,665	-0,026	-0,012
-422,773	-200,000	0,040	0,129
-421,759	-29,663	-0,143	-0,059
-420,744	367,749	-0,015	-0,022
-419,730	-56,206	-0,076	-0,024
-418,715	-20,161	-0,094	-0,042
-417,701	168,473	0,086	0,089
-416,686	800,000	-0,046	0,117
-415,671	156,584	0,098	0,098
-414,657	104,363	0,021	0,018
-413,642	177,659	0,070	0,074
-412,628	32,402	-0,037	-0,023
-411,613	36,320	0,049	-0,031
-410,598	-106,901	-0,069	0,011
-409,584	-122,231	0,086	0,010
-408,569	-162,737	0,110	0,004
-407,555	263,293	0,125	0,158
-406,540	800,000	0,023	-0,051
-405,525	-200,000	0,035	-0,118
-404,511	-200,000	0,018	-0,225
-403,496	-93,200	-0,127	0,025
-402,482	-200,000	-0,005	-0,022
-401,467	-73,329	0,070	-0,018
-400,452	-129,693	-0,116	0,011
-399,438	-134,831	-0,056	-0,005
-398,423	-59,864	-0,089	0,028
-397,409	-200,000	-0,003	0,129
-396,394	-200,000	-0,017	0,086
-395,379	-58,079	-0,031	0,010
-394,365	-135,114	0,202	0,017
-393,350	800,000	-0,078	-0,204
-392,336	800,000	0,013	-0,039
-391,321	502,624	0,066	0,112
-390,306	143,417	-0,049	0,047
-389,292	-200,000	0,003	-0,074
-388,277	248,622	0,025	-0,031
-387,263	145,713	0,023	0,023
-386,248	-198,858	0,042	0,000
-385,233	-69,724	0,063	-0,017
-384,219	-200,000	0,006	0,028
-383,204	171,214	0,069	0,072
-382,190	-126,851	-0,079	0,008
-381,175	-200,000	0,008	-0,089
-380,160	-112,976	0,164	-0,023
-379,146	-200,000	0,031	0,122
-378,131	67,304	0,061	-0,045
-377,117	800,000	0,027	-0,066
-376,102	181,396	0,056	0,060
-375,088	584,060	-0,012	0,021
-374,073	113,394	-0,045	-0,040
-373,058	-200,000	0,009	-0,106
-372,044	-152,235	0,173	-0,009
-371,029	80,272	0,043	0,034
-370,015	800,000	0,048	-0,101
-369,000	288,297	-0,011	0,014
-367,985	-8,174	0,092	-0,045
-366,971	-23,261	0,195	-0,085
-365,956	-200,000	-0,002	-0,020
-364,942	-147,204	-0,070	0,004
-363,927	800,000	-0,015	-0,038
-362,912	-73,574	-0,097	-0,026
-361,898	-49,242	-0,096	0,033
-360,883	-72,910	-0,212	-0,056
-359,869	529,039	0,085	-0,146
-358,854	-200,000	0,015	-0,058
-357,839	14,204	0,130	0,073
-356,825	76,761	0,139	0,107
-355,810	339,927	-0,042	-0,060
-354,796	-8,021	-0,108	0,053
-353,781	-6,334	-0,096	-0,047
-352,766	340,933	0,059	-0,084
-351,752	133,601	0,076	-0,072
-350,737	471,543	0,055	0,090
-349,723	-20,211	0,039	-0,017
-348,708	229,351	-0,044	0,052
-347,693	0,814	0,134	0,069
-346,679	-134,378	-0,152	-0,013
-345,664	800,000	-0,022	0,054
-344,650	144,185	0,061	-0,059
-343,635	-200,000	-0,020	-0,120
-342,620	-43,451	0,072	0,026
-341,606	-58,058	0,067	-0,021
-340,591	-137,119	0,084	-0,007
-339,577	-200,000	-0,005	-0,083
-338,562	130,796	-0,146	-0,136
-337,548	28,134	0,110	-0,067
-336,533	-70,307	0,059	-0,016
-335,518	66,385	0,187	-0,138
-334,504	-89,343	0,087	-0,018
-333,489	-200,000	-0,017	-0,144
-332,475	458,199	0,064	-0,103
-331,460	-108,921	-0,101	0,015
-330,445	215,478	0,080	0,092
-329,431	-20,593	0,141	0,062
-328,416	-200,000	0,004	0,083
-327,402	-200,000	-0,006	-0,025
-326,387	167,745	-0,066	0,068
-325,372	-75,860	-0,073	-0,019
-324,358	219,202	-0,075	0,087
-323,343	-200,000	0,002	-0,057
-322,329	800,000	-0,022	0,061
-321,314	98,830	0,058	-0,049
-320,299	-200,000	0,020	0,097
-319,285	800,000	-0,057	0,130
-318,270	-70,924	0,023	-0,006
-317,256	696,583	-0,015	-0,030
-316,241	127,897	-0,044	-0,041
-315,226	-47,651	-0,063	0,022
-314,212	-200,000	-0,022	0,255
-313,197	164,695	0,041	0,042
-312,183	800,000	0,057	0,155
-311,168	-200,000	0,021	-0,073
-310,153	114,808	-0,053	-0,047
-309,139	800,000	0,033	0,078
-308,124	-200,000	0,011	-0,153
-307,110	-200,000	-0,017	-0,088
-306,095	4,954	0,149	0,079
-305,080	54,099	-0,091	-0,063
-304,066	65,379	-0,101	0,074
-303,051	-99,144	0,063	-0,011
-302,037	-200,000	-0,008	0,082
-301,022	-200,000	-0,048	0,188
-300,008	73,408	-0,060	0,046
-298,993	-159,654	0,109	-0,004
-297,978	-29,039	0,090	-0,037
-296,964	-111,037	0,189	-0,028
-295,949	62,634	-0,038	-0,028
-294,935	355,958	-0,052	-0,076
-293,920	800,000	0,036	-0,106
-292,905	-200,000	0,016	-0,098
-291,891	-200,000	-0,028	-0,181
-290,876	800,000	0,053	0,127
-289,862	-52,915	-0,012	-0,004
-288,847	62,661	-0,058	-0,042
-287,832	-72,197	-0,088	-0,023
-286,818	-1,832	-0,072	-0,037
-285,803	-19,799	-0,084	0,038
-284,789	-20,775	-0,123	0,054
-283,774	-0,066	0,034	-0,017
-282,759	-85,983	-0,020	0,004
-281,745	-103,168	-0,133	-0,023
-280,730	-108,283	-0,066	-0,010
-279,716	280,507	0,013	-0,017
-278,701	-200,000	-0,017	0,085
-277,686	-200,000	0,007	-0,068
-276,672	-200,000	0,010	0,142
-275,657	-200,000	-0,015	0,139
-274,643	-200,000	0,023	0,099
-273,628	241,925	-0,025	-0,031
-272,613	800,000	-0,022	-0,068
-271,599	-101,148	0,229	-0,040
-270,584	800,000	0,029	-0,067
-269,570	468,768	0,030	0,049
-268,555	294,525	-0,016	0,022
-267,540	94,901	-0,086	-0,071
-266,526	-200,000	0,009	-0,029
-265,511	332,256	-0,049	-0,069
-264,497	-200,000	0,012	0,116
-263,482	120,343	0,087	0,078
-262,467	-42,342	-0,041	0,015
-261,453	-200,000	0,011	0,055
-260,438	800,000	-0,071	-0,163
-259,424	800,000	0,036	0,089
-258,409	-17,014	0,013	-0,006
-257,395	85,188	-0,204	0,161
-256,380	-200,000	0,006	-0,038
-255,365	-200,000	-0,011	-0,051
-254,351	72,523	-0,075	-0,056
-253,336	-48,643	0,095	-0,033
-252,322	-200,000	-0,001	0,035
-251,307	-200,000	0,017	-0,082
-250,292	-66,066	0,066	0,019
-249,278	177,287	0,064	0,067
-248,263	-79,852	-0,182	0,044
-247,249	51,775	-0,096	0,066
-246,234	-200,000	-0,024	-0,109
-245,219	-200,000	0,036	0,129
-244,205	-70,356	-0,039	0,011
-243,190	163,018	-0,039	-0,040
-242,176	-10,786	-0,107	0,051
-241,161	5,294	-0,047	-0,025
-240,146	53,220	0,086	-0,059
-239,132	75,060	0,082	-0,063
-238,117	800,000	0,025	-0,053
-237,103	364,057	-0,038	0,056
-236,088	-78,900	0,117	0,029
-235,073	-200,000	-0,001	-0,042
-234,059	-200,000	-0,016	-0,129
-233,044	123,767	-0,070	-0,063
-232,030	285,449	-0,056	0,072
-231,015	-2,326	0,095	0,048
-230,000	-200,000	-0,003	0,124
-228,986	-45,511	0,074	0,026
-227,971	89,991	0,088	0,071
-226,957	-110,457	0,076	0,011
-225,942	-122,700	-0,045	-0,005
-224,927	-133,487	-0,095	-0,008
-223,913	-200,000	0,011	0,047
-222,898	-75,045	-0,103	-0,026
-221,884	26,732	0,097	-0,058
-220,869	800,000	0,049	0,105
-219,855	451,477	-0,027	0,043
-218,840	800,000	-0,046	0,110
-217,825	278,780	-0,084	0,108
-216,811	61,713	-0,018	-0,013
-215,796	-14,606	-0,186	-0,086
-214,782	530,741	0,074	-0,126
-213,767	91,642	-0,027	0,022
-212,752	313,419	0,048	0,066
-211,738	-68,597	0,080	-0,022
-210,723	-200,000	0,004	0,021
-209,709	68,364	-0,075	0,055
-208,694	-65,913	-0,098	0,028
-207,679	172,980	-0,055	0,057
-206,665	497,097	0,048	0,081
-205,650	9,970	0,089	-0,049
-204,636	-23,781	-0,034	0,015
-203,621	-200,000	-0,013	0,173
-202,606	27,293	-0,022	-0,013
-201,592	-49,019	0,045	0,016
-200,577	-163,353	0,081	-0,003
-199,563	197,159	-0,114	0,126
-198,548	-40,378	-0,079	-0,029
-197,533	200,197	-0,135	0,150
-196,519	93,793	0,006	-0,005
-195,504	-164,866	0,111	-0,004
-194,490	330,393	-0,031	0,044
-193,475	-45,730	-0,055	-0,020
-192,460	587,184	0,064	-0,115
-191,446	-74,218	0,071	-0,018
-190,431	118,565	0,060	-0,053
-189,417	166,009	0,008	-0,008
-188,402	-32,348	-0,059	0,024
-187,387	-200,000	-0,015	0,079
-186,373	-2,754	0,009	-0,005
-185,358	-160,185	-0,032	0,001
-184,344	41,228	0,174	-0,113
-183,329	-98,992	0,095	-0,017
-182,315	-200,000	0,043	0,187
-181,300	-200,000	-0,010	-0,059
-180,285	89,293	0,031	-0,025
-179,271	800,000	0,042	-0,084
-178,256	90,502	0,069	-0,056
-177,242	616,576	0,015	-0,027
-176,227	-200,000	0,020	0,075
-175,212	-200,000	0,001	0,085
-174,198	-200,000	-0,027	0,097
-173,183	-42,330	-0,028	0,010
-172,169	25,875	-0,166	-0,099
-171,154	-80,226	0,197	-0,047
-170,139	240,004	-0,062	0,074
-169,125	-200,000	-0,010	0,034
-168,110	-81,563	-0,095	0,022
-167,096	-100,291	-0,178	0,031
-166,081	-97,518	-0,064	0,012
-165,066	-72,107	0,154	0,041
-164,052	-57,950	-0,138	-0,043
-163,037	50,340	-0,035	0,024
-162,023	200,569	-0,051	0,056
-161,008	-39,061	0,128	0,048
-159,993	-200,000	0,004	-0,015
-158,979	-200,000	0,033	-0,153
-157,964	-200,000	-0,021	-0,073
-156,950	42,663	0,082	-0,054
-155,935	-200,000	0,010	-0,038
-154,920	-200,000	-0,011	0,114
-153,906	287,940	0,115	0,150
-152,891	-30,963	-0,135	0,054
-151,877	-200,000	0,009	0,138
-150,862	-55,145	-0,058	-0,019
-149,847	211,377	-0,057	-0,064
-148,833	-166,156	-0,121	0,004
-147,818	132,183	0,040	-0,037
-146,804	800,000	0,014	-0,039
-145,789	-200,000	-0,005	-0,069
-144,775	-200,000	-0,002	-0,057
-143,760	44,088	-0,064	-0,042
-142,745	-200,000	-0,005	-0,053
-141,731	800,000	-0,027	0,082
-140,716	-200,000	0,017	0,079
-139,702	-200,000	0,006	0,088
-138,687	105,188	0,107	0,091
-137,672	-200,000	-0,009	0,257
-136,658	95,435	-0,088	0,072
-135,643	-200,000	-0,005	-0,035
-134,629	193,394	-0,074	0,081
-133,614	-80,012	0,043	0,010
-132,599	-200,000	0,037	0,144
-131,585	-158,893	-0,104	0,004
-130,570	800,000	-0,017	-0,046
-129,556	167,650	-0,059	-0,060
-128,541	642,250	-0,057	-0,105
-127,526	-5,296	0,028	0,014
-126,512	800,000	-0,041	0,105
-125,497	120,826	0,066	-0,059
-124,483	63,801	0,040	0,029
-123,468	-200,000	0,002	-0,058
-122,453	11,759	-0,095	-0,052
-121,439	61,564	0,179	0,128
-120,424	35,310	-0,152	-0,096
-119,410	-1,996	0,021	-0,011
-118,395	64,218	0,072	0,052
-117,380	81,857	-0,025	-0,020
-116,366	-50,000	-0,147	-0,050
-115,351	-200,000	0,012	0,046
-114,337	-109,415	-0,021	0,003
-113,322	-111,376	0,102	-0,015
-112,307	-76,696	-0,085	-0,021
-111,293	-152,880	-0,120	0,006
-110,278	-96,957	-0,117	-0,022
-109,264	-200,000	-0,006	-0,059
-108,249	146,797	-0,056	0,054
-107,234	62,460	0,020	0,015
-106,220	266,378	-0,085	0,107
-105,205	169,353	0,087	0,089
-104,191	-100,328	0,062	-0,011
-103,176	24,263	0,145	0,086
-102,162	237,444	-0,056	0,067
-101,147	-14,521	-0,077	-0,036
-100,132	-16,813	-0,067	0,030
-99,118	295,225	0,032	-0,043
-98,103	-200,000	-0,009	-0,098
-97,089	-49,171	0,048	-0,016
-96,074	46,283	0,071	0,047
-95,059	-182,520	0,146	-0,002
-94,045	-200,000	-0,012	0,126
-93,030	-200,000	-0,005	0,156
-92,016	179,799	-0,101	0,106
-91,001	121,980	0,060	-0,054
-89,986	382,742	0,028	-0,041
-88,972	-113,944	0,091	0,012
-87,957	232,000	-0,029	-0,034
-86,943	314,616	0,051	-0,070
-85,928	166,604	0,021	-0,021
-84,913	257,221	-0,049	-0,060
-83,899	-200,000	0,025	0,093
-82,884	800,000	0,050	0,147
-81,870	188,070	-0,030	-0,032
-80,855	800,000	-0,039	0,086
-79,840	22,349	0,090	0,053
-78,826	-200,000	-0,032	-0,145
-77,811	-23,756	-0,059	0,025
-76,797	-200,000	0,000	0,080
-75,782	800,000	-0,009	-0,019
-74,767	366,294	-0,024	-0,035
-73,753	800,000	0,027	0,076
-72,738	40,890	0,063	0,041
-71,724	-200,000	0,011	-0,064
-70,709	-108,774	0,080	0,012
-69,694	-200,000	0,004	0,156
-68,680	800,000	-0,023	0,049
-67,665	-200,000	-0,058	0,187
-66,651	315,498	-0,078	0,106
-65,636	18,716	0,064	0,037
-64,622	274,337	0,021	0,026
-63,607	-69,802	-0,197	-0,054
-62,592	102,258	0,023	0,019
-61,578	44,418	-0,022	0,015
-60,563	106,498	0,106	0,090
-59,549	-200,000	0,040	0,148
-58,534	-27,673	-1,938	-0,803
-57,519	800,000	-0,404	-1,199
-56,505	-200,000	-1,110	-4,828
-55,490	-11,089	0,836	0,394
-54,476	800,000	5,273	11,955
-53,461	-200,000	17,382	277,322
-52,446	800,000	726,078	2200,754
-51,432	541,412	1637,778	2808,704
-50,417	112,205	1624,910	1408,077
-49,403	79,195	1281,311	983,393
-48,388	32,515	1027,401	635,080
-47,373	19,016	989,929	567,421
-46,359	17,452	978,174	555,530
-45,344	14,993	974,294	545,252
-44,330	15,193	972,830	545,067
-43,315	14,703	971,138	542,497
-42,300	14,667	969,993	541,716
-41,286	14,606	969,138	541,019
-40,271	14,647	968,005	540,499
-39,257	14,687	966,980	540,034
-38,242	14,673	966,317	539,596
-37,227	14,661	965,486	539,074
-36,213	14,625	964,661	538,475
-35,198	14,657	963,659	537,998
-34,184	14,655	963,127	537,674
-33,169	14,614	962,124	536,957
-32,154	14,696	960,910	536,524
-31,140	14,671	960,174	536,010
-30,125	14,674	959,543	535,648
-29,111	14,658	958,605	535,053
-28,096	14,718	957,967	534,868
-27,082	14,709	957,177	534,377
-26,067	14,626	956,598	533,764
-25,052	14,673	955,728	533,408
-24,038	14,665	954,932	532,917
-23,023	14,630	954,405	532,490
-22,009	14,666	953,838	532,267
-20,994	14,717	953,149	532,027
-19,979	14,660	952,627	531,531
-18,965	14,686	952,030	531,260
-17,950	14,743	951,438	531,090
-16,936	14,637	950,651	530,292
-15,921	14,607	950,178	529,912
-14,906	14,534	949,263	529,146
-13,892	14,587	948,604	528,926
-12,877	14,542	947,847	528,342
-11,863	14,603	947,145	528,123
-10,848	14,567	946,921	527,863
-9,833	14,664	946,536	527,936
-8,819	14,611	945,868	527,372
-7,804	14,636	945,101	527,004
-6,790	14,599	944,587	526,578
-5,775	14,582	944,102	526,233
-4,760	14,658	943,566	526,154
-3,746	14,646	942,993	525,776
-2,731	14,420	942,120	524,555
-1,717	14,445	941,272	524,139
-0,702	14,383	940,851	523,688
0,313	14,273	940,161	523,747
1,327	17,403	938,625	532,719
2,342	25,954	810,863	483,333
3,356	22,517	511,369	298,930
4,371	1,596	382,685	196,700
5,386	-0,424	366,256	185,722
6,400	-0,941	360,549	182,177
7,415	-0,731	358,180	181,220
8,429	-0,683	356,640	180,484
9,444	-0,667	355,547	179,933
10,459	-0,710	355,014	179,596
11,473	-0,732	354,608	179,348
12,488	-0,574	354,017	179,223
13,502	-0,539	353,363	178,918
14,517	-0,275	352,885	178,978
15,531	-0,044	352,503	179,044
16,546	0,068	352,210	179,014
17,561	0,093	351,665	178,750
18,575	-0,046	351,316	178,391
19,590	-0,008	350,917	178,217
20,604	0,095	350,606	178,167
21,619	-0,029	350,158	177,776
22,634	0,076	349,780	177,693
23,648	0,065	349,325	177,432
24,663	-0,058	349,279	177,247
25,677	0,104	348,768	177,164
26,692	-0,026	348,570	176,894
27,707	-0,078	348,393	176,727
28,721	0,073	347,879	176,629
29,736	0,036	347,648	176,452
30,750	0,090	347,284	176,315
31,765	-0,054	347,020	175,996
32,780	0,069	346,600	175,912
33,794	0,031	346,388	175,744
34,809	0,053	346,043	175,579
35,823	-0,023	345,633	175,266
36,838	0,030	345,600	175,297
37,853	0,123	345,254	175,214
38,867	-0,069	345,044	174,867
39,882	-0,089	344,703	174,655
40,896	0,091	344,328	174,660
41,911	0,107	344,214	174,605
42,926	-0,013	343,911	174,296
43,940	-0,021	343,649	174,138
44,955	0,087	343,218	174,030
45,969	-0,001	342,996	173,800
46,984	-0,058	342,749	173,592
47,999	-0,060	342,423	173,410
49,013	-0,189	342,167	173,115
50,028	-0,136	341,847	172,998
51,042	-0,252	341,580	172,713
52,057	-0,167	341,373	172,693
53,071	-0,278	341,076	172,398
54,086	-0,121	340,773	172,411
55,101	-0,114	340,689	172,361
56,115	-0,087	340,502	172,283
57,130	0,080	340,070	172,241
58,144	-0,014	339,757	171,959
59,159	-0,067	339,489	171,748
60,174	-0,192	339,319	171,502
61,188	-0,102	339,046	171,453
62,203	-0,074	338,871	171,380
63,217	0,033	338,573	171,338
64,232	-0,069	338,214	171,024
65,247	-0,142	338,084	170,859
66,261	-0,150	337,785	170,684
67,276	-0,064	337,442	170,593
68,290	-0,186	337,171	170,302
69,305	-0,219	336,933	170,129
70,320	-0,121	336,672	170,093
71,334	-0,005	336,450	170,098
72,349	-0,149	336,111	169,748
73,363	-0,077	335,903	169,710
74,378	-0,121	335,571	169,477
75,393	0,026	335,359	169,521
76,407	-0,003	335,355	169,471
77,422	0,013	335,010	169,300
78,436	-0,229	334,696	168,852
79,451	-0,085	334,386	168,844
80,466	0,113	333,962	168,838
81,480	0,085	333,873	168,746
82,495	0,045	333,588	168,542
83,509	0,071	333,366	168,444
84,524	-0,016	333,244	168,269
85,539	-0,038	332,907	168,060
86,553	-0,034	332,701	167,945
87,568	-0,082	332,437	167,742
88,582	-0,053	332,125	167,603
89,597	0,027	331,889	167,558
90,611	-0,049	331,742	167,385
91,626	-0,005	331,496	167,294
92,641	0,081	331,289	167,272
93,655	-0,086	331,087	166,968
94,670	0,117	330,847	167,059
95,684	0,107	330,432	166,823
96,699	-0,012	330,267	166,592
97,714	0,005	329,915	166,419
98,728	-0,096	329,777	166,222
99,743	-0,019	329,577	166,192
100,757	-0,089	329,291	165,955
101,772	-0,032	328,945	165,829
102,787	-0,113	328,934	165,719
103,801	0,019	328,529	165,646
104,816	-0,040	328,339	165,471
105,830	-0,139	328,172	165,262
106,845	0,032	327,863	165,281
107,860	0,015	327,743	165,187
108,874	-0,055	327,387	164,916
109,889	-0,055	327,219	164,816
110,903	-0,146	326,914	164,548
111,918	-0,041	326,593	164,487
112,933	-0,030	326,516	164,445
113,947	-0,066	326,229	164,247
114,962	0,019	325,974	164,197
115,976	0,047	325,758	164,104
116,991	0,021	325,594	163,978
118,006	-0,144	325,434	163,702
119,020	-0,096	325,188	163,617
120,035	0,045	324,848	163,585
121,049	-0,136	324,824	163,360
122,064	-0,093	324,580	163,270
123,079	0,023	324,360	163,272
124,093	-0,009	323,987	163,034
125,108	-0,144	323,906	162,832
126,122	-0,052	323,632	162,779
127,137	0,014	323,400	162,721
128,151	0,087	323,066	162,617
129,166	-0,087	322,812	162,286
130,181	0,001	322,628	162,275
131,195	0,032	322,418	162,188
132,210	-0,033	322,106	161,946
133,224	-0,105	322,019	161,810
134,239	-0,104	321,710	161,641
135,254	-0,119	321,533	161,522
136,268	-0,220	321,337	161,299
137,283	-0,072	321,016	161,284
138,297	-0,086	320,661	161,076
139,312	-0,213	320,383	160,786
140,327	-0,030	320,219	160,886
141,341	-0,002	320,058	160,821
142,356	-0,025	319,810	160,657
143,370	0,092	319,576	160,651
144,385	0,000	319,517	160,509
145,400	-0,078	319,154	160,228
146,414	0,045	318,885	160,210
147,429	0,070	318,729	160,145
148,443	-0,062	318,502	159,874
149,458	-0,054	318,365	159,800
150,473	0,049	317,984	159,705
151,487	-0,011	317,756	159,512
152,502	-0,013	317,782	159,509
153,516	0,085	317,357	159,385
154,531	-0,131	317,330	159,128
155,546	-0,152	316,983	158,917
156,560	0,163	316,688	159,090
157,575	0,142	316,377	158,897
158,589	-0,015	316,224	158,640
159,604	0,133	315,946	158,642
160,619	0,040	315,863	158,488
161,633	0,046	315,649	158,373
162,648	0,158	315,495	158,401
163,662	-0,137	315,421	158,037
164,677	0,005	315,047	157,986
165,692	0,054	314,775	157,887
166,706	-0,028	314,781	157,789
167,721	-0,025	314,506	157,640
168,735	-0,005	314,324	157,556
169,750	0,074	313,974	157,450
170,764	0,027	313,636	157,217
171,779	-0,194	313,683	156,994
172,794	-0,218	313,496	156,861
173,808	-0,152	313,300	156,818
174,823	-0,101	313,026	156,721
175,837	-0,105	312,826	156,602
176,852	-0,105	312,617	156,485
177,867	-0,103	312,357	156,342
178,881	-0,009	312,125	156,310
179,896	0,132	312,011	156,387
180,910	0,032	311,815	156,170
181,925	0,012	311,492	155,974
182,940	0,037	311,247	155,863
183,954	-0,181	311,251	155,624
184,969	0,098	310,929	155,740
185,983	-0,011	310,839	155,567
186,998	-0,048	310,586	155,388
188,013	-0,081	310,359	155,226
189,027	-0,076	310,143	155,109
190,042	-0,025	309,733	154,943
191,056	-0,056	309,499	154,780
192,071	-0,306	309,403	154,460
193,086	-0,292	309,166	154,343
194,100	-0,086	308,977	154,447
195,115	-0,109	308,816	154,329
196,129	0,092	308,578	154,404
197,144	0,011	308,262	154,149
198,159	-0,138	308,131	153,916
199,173	-0,163	307,968	153,795
200,188	-0,311	307,637	153,463
201,202	-0,172	307,434	153,492
202,217	-0,079	307,335	153,523
203,232	-0,161	307,055	153,286
204,246	-0,112	306,907	153,249
205,261	-0,024	306,662	153,203
206,275	-0,105	306,580	153,065
207,290	0,021	306,233	153,007
208,304	0,017	306,059	152,903
209,319	0,111	305,707	152,810
210,334	0,001	305,612	152,636
211,348	0,047	305,446	152,587
212,363	-0,102	305,356	152,375
213,377	0,048	305,010	152,342
214,392	-0,206	305,003	152,066
215,407	-0,113	304,680	151,986
216,421	0,018	304,492	152,012
217,436	-0,036	304,257	151,827
218,450	-0,061	304,100	151,709
219,465	0,016	303,849	151,649
220,480	0,066	303,628	151,576
221,494	-0,088	303,557	151,371
222,509	0,083	303,257	151,381
223,523	-0,153	303,147	151,074
224,538	-0,071	303,013	151,077
225,553	-0,015	302,586	150,907
226,567	-0,084	302,525	150,793
227,582	0,016	302,275	150,755
228,596	0,029	302,051	150,644
229,611	-0,026	301,835	150,466
230,626	-0,084	301,805	150,380
231,640	-0,032	301,520	150,277
232,655	0,079	301,288	150,259
233,669	-0,091	301,103	149,983
234,684	-0,124	300,867	149,819
235,699	-0,006	300,827	149,904
236,713	-0,157	300,676	149,665
237,728	0,062	300,406	149,737
238,742	0,088	300,128	149,610
239,757	-0,128	299,901	149,268
240,772	-0,125	299,694	149,154
241,786	-0,084	299,489	149,080
242,801	-0,016	299,216	148,999
243,815	-0,126	299,226	148,880
244,830	-0,453	299,175	148,516
245,844	-0,245	298,781	148,514
246,859	-0,225	298,552	148,407
247,874	-0,201	298,284	148,285
248,888	-0,234	298,085	148,140
249,903	-0,263	297,930	148,020
250,917	-0,317	297,935	147,956
251,932	-0,382	297,469	147,648
252,947	-0,638	297,169	147,231
253,961	-1,294	296,533	146,256
254,976	-1,460	296,415	146,021
255,990	-0,965	296,474	146,525
257,005	0,510	297,072	148,266
258,020	2,500	297,610	150,490
259,034	3,139	297,924	151,267
260,049	3,571	297,671	151,552
261,063	3,526	297,596	151,456
262,078	3,971	297,322	151,743
263,093	3,989	297,155	151,661
264,107	4,164	297,042	151,763
265,122	4,318	296,992	151,875
266,136	4,527	296,882	152,011
267,151	4,540	296,772	151,954
268,166	4,397	296,550	151,686
269,180	4,446	296,262	151,574
270,195	4,351	296,060	151,364
271,209	4,283	295,918	151,211
272,224	4,162	295,641	150,938
273,239	4,179	295,430	150,833
274,253	3,985	295,240	150,533
275,268	4,051	295,017	150,470
276,282	4,127	294,823	150,432
277,297	4,169	294,627	150,360
278,312	4,332	294,453	150,416
279,326	4,373	294,244	150,335
280,341	4,314	294,059	150,171
281,355	4,168	293,867	149,917
282,370	3,908	293,727	149,579
283,384	3,943	293,618	149,544
284,399	4,155	293,215	149,531
285,414	4,172	293,106	149,479
286,428	4,019	292,969	149,247
287,443	3,876	292,676	148,947
288,457	3,821	292,348	148,713
289,472	3,982	292,116	148,738
290,487	3,811	292,063	148,532
291,501	3,896	291,936	148,536
292,516	4,056	291,520	148,466
293,530	3,655	291,571	148,091
294,545	3,890	291,400	148,217
295,560	3,781	291,225	148,011
296,574	3,739	290,905	147,795
297,589	3,747	290,490	147,578
298,603	3,592	290,545	147,444
299,618	3,687	290,298	147,397
300,633	3,737	290,095	147,329
301,647	3,679	290,104	147,264
302,662	3,773	289,841	147,208
303,676	4,161	289,593	147,440
304,691	3,982	289,427	147,171
305,706	4,042	289,180	147,090
306,720	4,158	289,328	147,262
307,735	4,117	289,088	147,088
308,749	4,219	288,805	147,029
309,764	3,951	288,617	146,664
310,779	3,948	288,471	146,574
311,793	4,015	288,247	146,511
312,808	4,142	288,017	146,502
313,822	3,973	287,848	146,242
314,837	4,077	287,572	146,187
315,852	4,085	287,337	146,062
316,866	4,027	287,269	145,960
317,881	3,884	287,093	145,723
318,895	3,894	286,975	145,659
319,910	3,842	286,672	145,443
320,925	3,951	286,523	145,457
321,939	4,193	286,296	145,557
322,954	4,197	286,240	145,520
323,968	4,099	286,035	145,310
324,983	3,906	285,941	145,068
325,997	4,284	285,629	145,253
327,012	4,122	285,586	145,065
328,027	4,313	285,352	145,113
329,041	4,200	285,248	144,941
330,056	4,209	284,991	144,805
331,070	4,130	284,849	144,646
332,085	4,236	284,600	144,607
333,100	4,269	284,464	144,555
334,114	4,235	284,201	144,377
335,129	4,093	284,103	144,181
336,143	4,042	283,930	144,033
337,158	4,299	283,772	144,180
338,173	4,116	283,514	143,865
339,187	4,171	283,331	143,811
340,202	4,245	283,180	143,791
341,216	4,097	282,809	143,452
342,231	4,059	282,815	143,407
343,246	4,167	282,575	143,372
344,260	4,003	282,465	143,151
345,275	4,312	282,340	143,363
346,289	4,483	282,168	143,421
347,304	4,400	282,022	143,258
348,319	4,187	281,808	142,938
349,333	4,240	281,482	142,809
350,348	4,216	281,495	142,781
351,362	4,179	281,209	142,588
352,377	4,232	281,040	142,540
353,392	4,134	280,840	142,335
354,406	4,098	280,728	142,232
355,421	193,109	1346,349	1415,202
356,435	156,231	1476,170	1415,220
