DTS Sentinel unit serial number:	SN410029Multiplexer serial number:	ORYXHardware model number:	OX2-SRSoftware version number:	ORYX F/W v4,00 Oryx Data Collector v3.7.2.0data status	okinstallation	B4 Nyhavnadifferential loss correction	single-endedforward channel	channel 2reverse channel	N/Adate	2023/12/15time	23:55:13forward acquisition time	300,00reverse acquisition time	0,00gamma	499,1914k internal	0,3128k external	0,3128temperature offset calibration	1,0000default loss term (dB/km)	0,3820temperature slope calibration	1,0000multiplexer offset coefficient	1,0000multiplexer slope coefficient	1,0000fibre end	0,00T internal ref (°C)	21,83T ext. ref 1 (°C)	6,71T ext. ref 2 (°C)	6,89length (m)	temperature (°C)	Stokes	anti-Stokes-744,400	684,241	-0,031	0,060
-743,385	-83,938	-0,267	0,063
-742,371	323,854	0,059	-0,084
-741,356	-15,301	-0,282	0,134
-740,342	-88,434	0,044	0,010
-739,327	-72,794	-0,200	0,054
-738,312	800,000	-0,048	-0,156
-737,298	-62,267	-0,141	0,044
-736,283	-72,009	-0,105	-0,029
-735,269	101,681	-0,195	0,169
-734,254	569,727	0,077	-0,140
-733,239	-85,049	-0,359	-0,083
-732,225	-200,000	-0,010	-0,081
-731,210	-200,000	0,010	0,171
-730,196	271,790	-0,096	0,126
-729,181	-200,000	0,002	-0,054
-728,167	42,813	-0,039	-0,027
-727,152	137,715	0,078	-0,076
-726,137	619,279	-0,071	-0,133
-725,123	-166,631	-0,077	0,002
-724,108	800,000	-0,053	-0,149
-723,094	119,271	-0,098	0,090
-722,079	71,980	-0,058	0,045
-721,064	-88,339	-0,163	0,036
-720,050	800,000	-0,053	-0,110
-719,035	-34,505	-0,070	0,028
-718,021	-79,812	-0,042	0,010
-717,006	-147,490	-0,151	0,009
-715,991	303,097	-0,073	-0,101
-714,977	-70,391	-0,127	-0,036
-713,962	47,119	0,071	-0,049
-712,948	132,587	0,136	-0,130
-711,933	19,903	0,057	-0,034
-710,918	258,740	-0,110	0,141
-709,904	-123,174	0,060	-0,007
-708,889	426,692	-0,046	-0,074
-707,875	-15,622	-0,062	-0,029
-706,860	115,212	0,019	-0,017
-705,845	69,468	0,080	0,061
-704,831	-38,406	-0,034	-0,013
-703,816	48,384	-0,131	0,091
-702,802	29,960	0,063	-0,040
-701,787	800,000	-0,061	-0,134
-700,772	-32,289	-0,092	0,038
-699,758	800,000	0,007	0,021
-698,743	-65,001	0,105	-0,031
-697,729	-103,549	0,137	-0,024
-696,714	531,430	-0,028	-0,049
-695,699	800,000	-0,033	-0,093
-694,685	-200,000	-0,014	0,096
-693,670	-200,000	0,005	-0,087
-692,656	294,177	-0,033	0,045
-691,641	-63,412	-0,123	-0,037
-690,627	117,097	-0,028	0,025
-689,612	-175,984	0,128	0,002
-688,597	-200,000	-0,010	-0,048
-687,583	713,906	0,034	-0,067
-686,568	-131,687	-0,109	-0,011
-685,554	800,000	0,061	-0,138
-684,539	20,536	0,061	-0,037
-683,524	162,502	0,054	-0,056
-682,510	-141,071	0,040	-0,003
-681,495	391,318	0,063	0,097
-680,481	-200,000	-0,016	-0,084
-679,466	134,679	-0,093	0,090
-678,451	-200,000	-0,019	0,116
-677,437	800,000	0,027	-0,077
-676,422	669,269	-0,013	-0,026
-675,408	-97,745	0,159	-0,030
-674,393	155,076	0,083	-0,084
-673,378	800,000	0,073	0,175
-672,364	152,152	-0,035	-0,036
-671,349	175,420	-0,042	0,045
-670,335	-200,000	0,001	0,064
-669,320	-44,504	0,131	0,048
-668,305	-126,985	0,017	-0,002
-667,291	212,008	0,053	0,063
-666,276	-27,133	-0,080	-0,034
-665,262	592,891	0,018	-0,034
-664,247	237,838	0,048	-0,060
-663,232	94,316	-0,027	0,023
-662,218	235,121	-0,072	0,088
-661,203	710,781	-0,088	-0,174
-660,189	396,427	0,057	0,089
-659,174	70,708	0,044	0,034
-658,159	109,248	0,052	0,046
-657,145	-200,000	-0,002	-0,154
-656,130	-200,000	0,017	-0,070
-655,116	-21,389	0,100	0,045
-654,101	125,298	0,116	0,109
-653,086	28,025	-0,089	0,055
-652,072	249,495	-0,088	-0,111
-651,057	488,693	0,039	-0,067
-650,043	800,000	0,054	-0,159
-649,028	115,069	-0,158	-0,143
-648,014	-200,000	0,009	0,052
-646,999	-200,000	-0,027	0,147
-645,984	-40,152	-0,034	0,013
-644,970	325,227	-0,090	-0,128
-643,955	65,195	0,117	-0,088
-642,941	800,000	-0,021	-0,056
-641,926	25,369	0,079	-0,049
-640,911	800,000	0,038	-0,099
-639,897	-200,000	-0,007	-0,104
-638,882	-200,000	-0,009	-0,042
-637,868	233,055	-0,049	-0,059
-636,853	26,267	-0,043	-0,026
-635,838	562,415	-0,030	0,053
-634,824	558,427	-0,009	-0,017
-633,809	84,956	0,075	0,061
-632,795	-161,072	0,063	-0,002
-631,780	197,016	-0,145	0,164
-630,765	115,844	-0,053	-0,048
-629,751	800,000	-0,027	0,089
-628,736	-13,065	0,075	-0,036
-627,722	541,074	0,042	0,075
-626,707	74,660	-0,095	0,074
-625,692	58,305	0,087	0,063
-624,678	177,434	-0,093	0,100
-623,663	71,983	0,085	0,066
-622,649	8,156	-0,136	-0,075
-621,634	-35,608	0,062	0,025
-620,619	671,654	0,055	0,106
-619,605	44,957	0,052	-0,035
-618,590	-120,632	-0,269	0,033
-617,576	800,000	-0,052	0,109
-616,561	312,818	-0,053	-0,074
-615,546	-21,030	0,040	-0,018
-614,532	800,000	-0,023	-0,060
-613,517	-200,000	0,031	-0,141
-612,503	76,865	-0,053	-0,041
-611,488	-200,000	0,053	0,243
-610,474	401,324	-0,043	0,068
-609,459	-200,000	0,004	-0,041
-608,444	-39,411	-0,080	-0,031
-607,430	-42,840	-0,050	0,019
-606,415	224,387	-0,079	-0,095
-605,401	50,341	0,050	-0,035
-604,386	-200,000	-0,016	0,110
-603,371	800,000	-0,025	0,067
-602,357	-24,421	-0,072	0,032
-601,342	171,709	0,030	-0,031
-600,328	151,881	-0,048	-0,048
-599,313	800,000	-0,027	0,076
-598,298	140,695	-0,068	-0,066
-597,284	-133,290	0,036	-0,003
-596,269	59,231	-0,066	-0,048
-595,255	-138,086	0,062	-0,005
-594,240	171,206	0,173	-0,184
-593,225	-60,192	0,086	-0,027
-592,211	261,247	-0,072	0,092
-591,196	-154,015	-0,141	-0,007
-590,182	-31,983	0,058	-0,024
-589,167	-36,257	-0,059	-0,023
-588,152	169,182	-0,085	0,090
-587,138	-56,462	-0,151	-0,049
-586,123	15,098	-0,030	-0,017
-585,109	-189,376	-0,084	0,001
-584,094	-55,096	-0,083	0,028
-583,079	104,348	0,134	0,117
-582,065	-53,285	0,187	0,063
-581,050	688,117	-0,082	-0,160
-580,036	249,401	-0,067	-0,084
-579,021	-79,116	0,073	-0,018
-578,006	800,000	-0,016	-0,046
-576,992	800,000	0,023	-0,054
-575,977	-200,000	-0,028	0,145
-574,963	63,286	0,024	0,018
-573,948	-74,082	-0,034	0,009
-572,934	-71,452	0,074	-0,020
-571,919	-60,325	-0,139	0,043
-570,904	-200,000	0,008	-0,089
-569,890	-19,726	-0,018	0,008
-568,875	800,000	-0,057	0,144
-567,861	163,469	0,053	0,055
-566,846	-92,469	0,111	0,023
-565,831	-200,000	0,043	0,189
-564,817	114,388	-0,115	0,104
-563,802	-200,000	0,020	0,075
-562,788	-20,688	-0,093	-0,042
-561,773	44,027	-0,213	-0,144
-560,758	-200,000	-0,022	-0,096
-559,744	13,975	0,118	-0,067
-558,729	-59,658	0,057	0,018
-557,715	-67,987	0,035	0,010
-556,700	-61,116	-0,160	-0,050
-555,685	-32,938	0,069	-0,028
-554,671	-116,209	-0,158	-0,021
-553,656	-180,020	0,107	-0,002
-552,642	-200,000	0,003	0,048
-551,627	-200,000	0,048	0,184
-550,612	763,595	0,012	0,024
-549,598	430,595	-0,014	0,022
-548,583	-200,000	0,003	-0,012
-547,569	800,000	0,023	0,064
-546,554	-154,274	0,089	-0,004
-545,539	-73,313	0,122	-0,033
-544,525	749,307	-0,031	0,062
-543,510	18,636	0,037	-0,022
-542,496	-0,622	-0,053	-0,028
-541,481	-24,682	-0,163	0,071
-540,466	332,473	-0,034	0,049
-539,452	-99,616	0,027	-0,005
-538,437	-156,207	0,089	-0,004
-537,423	84,313	0,085	-0,068
-536,408	62,953	-0,028	-0,021
-535,393	-200,000	0,009	-0,093
-534,379	-200,000	0,000	-0,045
-533,364	153,869	-0,088	-0,089
-532,350	-200,000	0,010	-0,087
-531,335	-20,774	-0,077	0,035
-530,321	-118,874	-0,020	-0,003
-529,306	55,433	-0,033	-0,024
-528,291	104,868	-0,038	-0,033
-527,277	-200,000	0,010	-0,060
-526,262	365,484	-0,052	-0,077
-525,248	800,000	-0,042	0,114
-524,233	59,118	0,058	0,042
-523,218	431,394	0,046	0,074
-522,204	214,804	-0,111	0,130
-521,189	-200,000	0,004	0,057
-520,175	-15,084	-0,067	0,031
-519,160	-200,000	-0,008	-0,034
-518,145	-125,237	0,061	0,007
-517,131	-200,000	0,024	0,079
-516,116	111,382	0,157	-0,139
-515,102	35,588	0,112	-0,073
-514,087	-200,000	0,010	-0,049
-513,072	-47,206	-0,142	0,051
-512,058	-144,276	-0,084	-0,006
-511,043	-134,367	0,115	0,010
-510,029	-200,000	0,018	0,158
-509,014	512,637	0,026	0,044
-507,999	184,980	0,080	-0,088
-506,985	150,438	0,056	-0,056
-505,970	-193,452	-0,165	-0,001
-504,956	-200,000	-0,001	-0,206
-503,941	530,707	-0,037	0,065
-502,926	-156,385	0,196	-0,009
-501,912	-178,038	0,073	0,001
-500,897	306,411	-0,035	-0,048
-499,883	-117,518	0,061	0,008
-498,868	-200,000	-0,019	-0,083
-497,853	237,401	0,023	-0,028
-496,839	-200,000	0,017	-0,062
-495,824	-79,911	0,108	0,027
-494,810	303,022	-0,083	0,113
-493,795	201,972	0,068	-0,078
-492,781	178,743	0,132	0,142
-491,766	-54,481	-0,067	-0,022
-490,751	-200,000	0,046	-0,185
-489,737	-70,964	0,032	0,009
-488,722	-200,000	-0,016	0,062
-487,708	-200,000	0,021	-0,080
-486,693	122,631	-0,024	-0,022
-485,678	-200,000	0,008	0,038
-484,664	800,000	-0,027	-0,069
-483,649	-5,830	-0,060	0,030
-482,635	167,306	0,065	0,069
-481,620	-74,478	0,116	-0,031
-480,605	-200,000	0,006	-0,025
-479,591	141,564	-0,102	0,099
-478,576	-122,855	-0,097	-0,011
-477,562	630,398	-0,032	-0,059
-476,547	246,284	-0,093	-0,115
-475,532	234,093	0,043	-0,052
-474,518	202,892	0,054	-0,062
-473,503	-200,000	-0,006	0,047
-472,489	-200,000	-0,024	0,169
-471,474	90,705	-0,073	0,060
-470,459	-137,694	-0,181	0,015
-469,445	800,000	0,042	0,099
-468,430	-113,933	0,121	0,017
-467,416	222,955	0,025	-0,030
-466,401	-90,032	-0,129	-0,028
-465,386	800,000	0,040	-0,095
-464,372	193,372	-0,082	0,091
-463,357	-69,615	-0,150	-0,042
-462,343	-40,937	-0,093	0,035
-461,328	800,000	0,028	-0,074
-460,313	-200,000	0,003	-0,050
-459,299	-200,000	0,000	-0,174
-458,284	-23,947	0,087	-0,038
-457,270	459,507	0,099	0,163
-456,255	-60,929	0,108	-0,033
-455,241	245,385	-0,040	-0,050
-454,226	371,467	0,077	-0,115
-453,211	139,110	-0,090	-0,087
-452,197	-153,171	-0,120	-0,006
-451,182	-87,792	0,102	0,022
-450,168	-200,000	-0,004	-0,053
-449,153	0,226	0,081	-0,043
-448,138	-200,000	-0,028	-0,096
-447,124	-60,527	0,051	0,016
-446,109	75,474	0,061	0,048
-445,095	132,366	0,028	0,027
-444,080	-173,064	0,111	0,002
-443,065	388,530	-0,033	0,050
-442,051	-52,249	0,092	-0,031
-441,036	513,129	0,045	0,078
-440,022	265,941	0,044	-0,057
-439,007	-66,025	-0,068	-0,020
-437,992	-70,483	-0,029	-0,008
-436,978	-23,863	0,024	0,010
-435,963	-83,265	0,075	0,018
-434,949	-200,000	-0,004	-0,016
-433,934	20,448	-0,091	-0,054
-432,919	1,927	-0,118	-0,062
-431,905	800,000	-0,015	-0,046
-430,890	265,827	0,078	0,100
-429,876	-200,000	0,015	0,080
-428,861	87,943	0,116	0,095
-427,846	800,000	-0,037	-0,085
-426,832	105,603	-0,062	0,054
-425,817	-108,719	0,062	-0,010
-424,803	129,458	-0,078	-0,073
-423,788	-200,000	0,015	-0,140
-422,773	-81,451	0,068	-0,016
-421,759	405,720	0,091	0,142
-420,744	-200,000	-0,013	-0,059
-419,730	-19,431	-0,085	0,039
-418,715	395,043	0,045	0,070
-417,701	-200,000	-0,023	0,172
-416,686	189,029	0,064	-0,071
-415,671	-141,203	0,119	-0,009
-414,657	-81,414	0,112	-0,027
-413,642	203,376	-0,102	-0,116
-412,628	46,147	-0,072	0,049
-411,613	52,859	0,076	-0,053
-410,598	-200,000	-0,005	-0,114
-409,584	166,006	0,036	0,038
-408,569	323,635	0,028	-0,040
-407,555	36,188	-0,058	-0,037
-406,540	128,478	0,087	-0,081
-405,525	729,826	-0,065	0,127
-404,511	343,582	0,016	0,023
-403,496	54,182	-0,113	0,080
-402,482	498,075	-0,022	0,038
-401,467	152,543	0,077	0,077
-400,452	-200,000	-0,021	0,119
-399,438	-200,000	-0,002	0,087
-398,423	237,302	0,038	-0,046
-397,409	5,896	0,071	0,039
-396,394	-104,804	-0,029	-0,005
-395,379	-200,000	-0,024	0,093
-394,365	523,221	0,028	0,048
-393,350	-61,447	-0,043	0,013
-392,336	560,274	-0,006	0,010
-391,321	490,820	-0,035	-0,059
-390,306	540,437	0,074	-0,130
-389,292	-200,000	-0,017	-0,127
-388,277	800,000	0,023	-0,055
-387,263	800,000	-0,078	0,180
-386,248	-24,316	-0,047	0,021
-385,233	-183,815	0,082	-0,001
-384,219	-101,806	0,033	-0,006
-383,204	-58,636	-0,110	0,035
-382,190	62,564	-0,016	-0,012
-381,175	-60,652	0,074	-0,023
-380,160	-37,300	0,129	0,050
-379,146	171,519	0,119	0,125
-378,131	-200,000	-0,017	0,167
-377,117	-196,081	0,104	0,001
-376,102	236,002	0,037	0,045
-375,088	135,998	-0,079	0,076
-374,073	-8,233	0,069	-0,034
-373,058	-100,748	0,075	0,013
-372,044	-200,000	-0,020	0,078
-371,029	76,373	0,089	0,069
-370,015	564,448	-0,032	0,058
-369,000	-200,000	-0,019	0,088
-367,985	330,221	-0,068	-0,096
-366,971	-200,000	-0,011	0,061
-365,956	42,225	-0,086	-0,057
-364,942	-186,259	0,113	0,001
-363,927	144,915	-0,049	-0,048
-362,912	-200,000	-0,009	0,042
-361,898	-200,000	0,017	-0,099
-360,883	103,702	-0,092	0,080
-359,869	232,651	0,043	0,051
-358,854	102,446	-0,071	0,061
-357,839	-200,000	0,002	0,116
-356,825	-200,000	0,001	0,075
-355,810	-166,148	0,066	0,002
-354,796	-120,795	-0,084	-0,010
-353,781	-200,000	-0,014	0,064
-352,766	28,678	0,025	-0,016
-351,752	-134,835	-0,112	0,010
-350,737	-131,898	0,067	-0,006
-349,723	-200,000	-0,021	0,190
-348,708	212,281	0,032	-0,037
-347,693	-11,742	-0,128	-0,062
-346,679	800,000	-0,021	-0,063
-345,664	-200,000	0,021	-0,135
-344,650	658,197	0,039	-0,075
-343,635	-109,610	-0,017	-0,003
-342,620	114,683	0,091	0,081
-341,606	538,704	0,057	-0,099
-340,591	800,000	0,037	0,117
-339,577	800,000	-0,034	-0,076
-338,562	-79,092	-0,099	-0,025
-337,548	-200,000	-0,011	0,091
-336,533	209,599	0,018	-0,021
-335,518	-200,000	0,003	0,103
-334,504	-141,026	0,111	0,008
-333,489	221,510	-0,024	0,029
-332,475	-114,344	-0,062	-0,009
-331,460	-200,000	-0,022	-0,154
-330,445	376,215	0,047	0,071
-329,431	1,198	-0,102	-0,054
-328,416	-75,352	0,124	0,032
-327,402	800,000	-0,030	-0,065
-326,387	-64,396	-0,146	0,043
-325,372	-200,000	0,020	-0,080
-324,358	73,454	0,086	-0,066
-323,343	-52,396	0,055	-0,019
-322,329	378,539	-0,019	0,028
-321,314	-93,397	0,052	0,011
-320,299	-86,146	0,099	-0,022
-319,285	-200,000	-0,010	-0,069
-318,270	54,016	-0,079	-0,056
-317,256	-200,000	0,007	-0,030
-316,241	800,000	0,024	-0,063
-315,226	142,398	-0,165	-0,161
-314,212	159,383	0,044	0,044
-313,197	-78,994	-0,112	-0,028
-312,183	800,000	0,062	0,138
-311,168	640,723	-0,077	0,144
-310,153	650,997	0,012	-0,023
-309,139	-97,542	0,067	-0,013
-308,124	-1,332	0,167	-0,086
-307,110	800,000	0,025	0,067
-306,095	277,846	0,075	0,099
-305,080	800,000	-0,095	0,227
-304,066	-169,364	0,095	-0,003
-303,051	320,734	0,014	-0,020
-302,037	800,000	-0,069	-0,176
-301,022	196,873	-0,118	-0,132
-300,008	800,000	0,029	-0,080
-298,993	800,000	0,071	0,148
-297,978	39,019	0,110	0,072
-296,964	656,074	0,071	0,134
-295,949	-200,000	-0,000	-0,124
-294,935	1,941	0,145	-0,076
-293,920	-200,000	0,002	-0,131
-292,905	-173,519	-0,098	0,002
-291,891	446,366	-0,042	0,068
-290,876	-200,000	0,024	0,109
-289,862	140,352	0,042	0,040
-288,847	-80,231	0,172	-0,042
-287,832	-200,000	-0,002	-0,120
-286,818	26,554	-0,223	-0,136
-285,803	800,000	0,015	-0,038
-284,789	53,447	-0,032	-0,022
-283,774	-101,162	-0,024	-0,004
-282,759	-97,443	0,036	-0,007
-281,745	283,051	-0,129	-0,170
-280,730	-158,468	-0,082	0,003
-279,716	214,745	-0,016	-0,019
-278,701	800,000	0,057	0,128
-277,686	10,572	-0,046	0,026
-276,672	-68,049	0,060	-0,017
-275,657	81,520	-0,082	-0,064
-274,643	247,929	-0,044	-0,054
-273,628	507,357	-0,010	-0,018
-272,613	-89,498	-0,096	0,020
-271,599	-200,000	0,042	0,158
-270,584	-69,403	0,169	0,047
-269,570	800,000	0,032	-0,075
-268,555	800,000	-0,027	0,059
-267,540	-200,000	-0,014	0,051
-266,526	-0,645	0,059	-0,030
-265,511	185,738	0,054	0,059
-264,497	-53,706	0,070	0,023
-263,482	503,483	0,014	-0,023
-262,467	-138,367	0,086	-0,007
-261,453	-174,759	0,138	0,003
-260,438	638,493	0,036	-0,066
-259,424	109,528	-0,115	-0,100
-258,409	115,050	0,108	0,096
-257,395	-31,263	0,031	-0,013
-256,380	290,353	0,078	0,103
-255,365	-200,000	0,007	-0,066
-254,351	-200,000	0,013	0,074
-253,336	-200,000	-0,002	0,025
-252,322	794,632	-0,034	-0,069
-251,307	800,000	0,011	-0,030
-250,292	45,237	0,078	0,053
-249,278	75,733	0,093	0,072
-248,263	-121,701	-0,070	-0,008
-247,249	30,297	0,052	0,032
-246,234	-135,144	-0,120	0,010
-245,219	114,430	-0,086	-0,077
-244,205	28,648	0,077	-0,047
-243,190	-136,782	-0,050	-0,004
-242,176	-75,643	-0,109	-0,028
-241,161	120,706	-0,043	0,039
-240,146	-200,000	0,003	-0,119
-239,132	275,119	0,028	0,037
-238,117	-200,000	0,000	0,067
-237,103	-42,491	-0,057	0,021
-236,088	163,506	-0,026	0,026
-235,073	164,654	0,085	0,087
-234,059	47,672	0,040	-0,027
-233,044	31,704	0,118	0,074
-232,030	-17,520	-0,050	-0,023
-231,015	462,305	0,048	-0,079
-230,000	-121,360	-0,071	-0,008
-228,986	-200,000	-0,026	-0,087
-227,971	159,986	0,048	0,048
-226,957	49,751	-0,034	0,023
-225,942	34,615	0,076	-0,048
-224,927	800,000	0,028	0,090
-223,913	127,174	-0,148	0,137
-222,898	-21,704	0,084	0,037
-221,884	-200,000	0,021	-0,096
-220,869	77,432	-0,035	-0,027
-219,855	800,000	-0,042	0,104
-218,840	336,839	0,048	0,068
-217,825	-68,485	-0,205	0,058
-216,811	27,377	-0,078	-0,048
-215,796	-200,000	-0,031	0,145
-214,782	-37,485	0,127	0,049
-213,767	800,000	0,033	-0,101
-212,752	267,385	0,057	0,073
-211,738	103,101	-0,016	-0,014
-210,723	-119,512	0,099	0,012
-209,709	-155,634	-0,179	-0,008
-208,694	93,371	-0,015	-0,012
-207,679	245,912	0,074	0,091
-206,665	800,000	-0,045	-0,131
-205,650	-67,914	0,177	0,050
-204,636	-200,000	0,038	0,136
-203,621	800,000	-0,032	0,100
-202,606	800,000	-0,035	-0,099
-201,592	379,157	0,098	-0,146
-200,577	282,655	-0,099	-0,130
-199,563	225,251	0,050	-0,059
-198,548	-200,000	0,003	0,032
-197,533	351,128	-0,067	0,097
-196,519	-120,752	0,053	-0,006
-195,504	800,000	-0,042	0,094
-194,490	447,101	0,044	-0,071
-193,475	23,635	-0,123	-0,074
-192,460	-200,000	0,007	-0,041
-191,446	81,569	0,021	0,016
-190,431	-84,668	0,070	0,016
-189,417	-200,000	-0,002	-0,023
-188,402	-0,136	-0,164	-0,085
-187,387	-126,945	0,100	0,011
-186,373	177,455	0,040	-0,043
-185,358	-200,000	-0,021	-0,163
-184,344	739,402	-0,009	0,017
-183,329	800,000	0,029	0,083
-182,315	3,457	0,038	-0,020
-181,300	47,037	-0,058	-0,039
-180,285	73,629	0,046	-0,035
-179,271	-62,130	-0,121	-0,036
-178,256	-37,002	0,099	-0,039
-177,242	468,659	0,077	-0,127
-176,227	18,363	0,051	0,030
-175,212	-200,000	-0,011	0,080
-174,198	371,366	0,026	-0,039
-173,183	800,000	-0,014	-0,037
-172,169	-31,246	-0,104	0,043
-171,154	54,600	-0,111	-0,078
-170,139	800,000	-0,036	0,100
-169,125	-140,382	0,071	0,005
-168,110	-200,000	-0,011	0,047
-167,096	-147,708	0,051	-0,003
-166,081	41,248	-0,178	0,117
-165,066	77,055	-0,069	0,053
-164,052	609,165	-0,073	-0,133
-163,037	800,000	0,046	-0,138
-162,023	800,000	-0,040	0,119
-161,008	132,832	0,051	-0,048
-159,993	-7,437	0,138	0,068
-158,979	1,086	0,117	-0,061
-157,964	-167,798	-0,108	-0,003
-156,950	36,189	-0,095	-0,061
-155,935	-142,160	-0,046	-0,003
-154,920	271,753	0,072	-0,093
-153,906	-200,000	-0,004	-0,057
-152,891	-94,226	-0,035	0,007
-151,877	-46,514	-0,018	0,006
-150,862	315,352	0,038	-0,052
-149,847	-167,608	-0,148	0,004
-148,833	800,000	-0,022	-0,070
-147,818	-17,853	-0,031	0,014
-146,804	481,957	0,051	0,085
-145,789	78,540	0,046	-0,036
-144,775	70,754	-0,081	-0,061
-143,760	-5,731	0,068	0,034
-142,745	-154,596	-0,042	0,002
-141,731	162,622	-0,103	0,105
-140,716	-4,836	0,082	0,041
-139,702	365,859	0,073	-0,107
-138,687	287,405	0,104	-0,137
-137,672	115,176	-0,032	0,028
-136,658	-154,319	-0,111	0,005
-135,643	-59,080	-0,065	-0,020
-134,629	66,772	0,124	-0,091
-133,614	-200,000	-0,003	0,023
-132,599	72,461	0,078	-0,059
-131,585	-39,682	-0,096	0,036
-130,570	-200,000	-0,044	0,179
-129,556	800,000	0,037	-0,104
-128,541	-200,000	-0,009	-0,040
-127,526	390,038	0,057	-0,087
-126,512	186,939	-0,021	-0,023
-125,497	516,655	0,056	0,096
-124,483	-30,280	0,114	-0,047
-123,468	800,000	-0,032	-0,070
-122,453	-200,000	-0,014	-0,071
-121,439	43,745	-0,077	-0,051
-120,424	-27,531	0,146	0,061
-119,410	800,000	0,051	0,116
-118,395	-37,571	0,111	-0,043
-117,380	-48,492	-0,135	0,047
-116,366	-177,509	-0,115	0,002
-115,351	-112,774	0,125	-0,018
-114,337	789,274	0,017	0,035
-113,322	-43,874	-0,071	-0,026
-112,307	-101,600	-0,011	0,002
-111,293	-200,000	0,014	0,073
-110,278	-82,775	-0,105	-0,024
-109,264	548,909	0,030	0,052
-108,249	800,000	-0,048	-0,127
-107,234	-10,715	0,092	-0,044
-106,220	800,000	-0,015	0,039
-105,205	-200,000	-0,002	-0,015
-104,191	-111,699	0,167	-0,024
-103,176	800,000	-0,046	-0,107
-102,162	-143,785	-0,076	0,005
-101,147	-52,445	0,108	-0,036
-100,132	81,084	0,008	0,006
-99,118	315,588	-0,045	-0,062
-98,103	-74,660	0,069	0,018
-97,089	-200,000	-0,002	0,116
-96,074	-137,311	0,092	0,008
-95,059	-105,673	-0,061	-0,010
-94,045	3,278	-0,032	-0,017
-93,030	800,000	-0,030	-0,072
-92,016	-200,000	-0,035	-0,171
-91,001	18,680	-0,063	0,036
-89,986	-50,755	-0,084	-0,029
-88,972	18,422	0,080	0,047
-87,957	678,786	-0,041	0,078
-86,943	-200,000	0,004	0,013
-85,928	377,704	-0,018	0,027
-84,913	-200,000	-0,014	0,065
-83,899	-180,174	0,120	0,002
-82,884	-85,992	0,067	0,015
-81,870	-170,003	-0,156	0,004
-80,855	-65,732	-0,032	0,009
-79,840	-200,000	-0,033	-0,130
-78,826	275,742	-0,098	0,126
-77,811	800,000	-0,035	0,085
-76,797	128,573	0,104	0,096
-75,782	-73,203	0,098	-0,026
-74,767	800,000	0,038	0,103
-73,753	-200,000	-0,029	0,153
-72,738	800,000	0,045	0,109
-71,724	-200,000	0,001	-0,055
-70,709	102,348	0,117	-0,099
-69,694	133,255	0,047	-0,044
-68,680	217,815	-0,056	-0,064
-67,665	-3,723	0,062	0,031
-66,651	152,077	-0,011	0,011
-65,636	-200,000	0,004	-0,088
-64,622	-34,486	-0,107	-0,042
-63,607	-200,000	-0,014	0,082
-62,592	-101,216	0,081	0,014
-61,578	482,274	0,018	0,029
-60,563	22,680	0,087	0,051
-59,549	574,042	-0,044	-0,077
-58,534	-103,972	-1,465	-0,245
-57,519	560,674	-0,840	-1,477
-56,505	-200,000	-0,868	-4,340
-55,490	-59,982	0,598	-0,184
-54,476	800,000	4,834	11,445
-53,461	-200,000	14,029	251,058
-52,446	-200,000	692,865	2233,726
-51,432	579,098	1621,054	2886,527
-50,417	117,509	1628,906	1451,738
-49,403	73,671	1283,566	973,304
-48,388	37,636	1020,505	654,861
-47,373	23,906	978,873	583,178
-46,359	23,115	968,445	574,359
-45,344	22,078	964,164	568,423
-44,330	22,125	962,415	567,523
-43,315	21,894	961,272	566,078
-42,300	21,914	960,279	565,534
-41,286	21,877	959,267	564,796
-40,271	21,879	958,124	564,106
-39,257	21,829	957,324	563,454
-38,242	21,873	956,354	563,003
-37,227	21,852	955,409	562,353
-36,213	21,820	954,711	561,819
-35,198	21,791	953,771	561,150
-34,184	21,851	953,250	561,015
-33,169	21,821	952,296	560,334
-32,154	21,869	951,283	559,870
-31,140	21,867	950,605	559,443
-30,125	21,975	949,578	559,163
-29,111	21,877	948,788	558,359
-28,096	21,872	948,151	557,948
-27,082	21,858	947,577	557,543
-26,067	21,845	946,732	556,982
-25,052	21,860	946,090	556,631
-24,038	21,826	945,382	556,084
-23,023	21,821	944,839	555,727
-22,009	21,912	943,976	555,486
-20,994	21,929	943,245	555,086
-19,979	21,894	942,969	554,793
-18,965	21,923	941,983	554,283
-17,950	21,860	941,586	553,826
-16,936	21,783	941,250	553,363
-15,921	21,798	940,144	552,736
-14,906	21,796	939,372	552,254
-13,892	21,761	938,799	551,786
-12,877	21,792	938,190	551,505
-11,863	21,706	937,576	550,850
-10,848	21,723	937,237	550,683
-9,833	21,851	936,696	550,747
-8,819	21,823	936,060	550,262
-7,804	21,726	935,474	549,590
-6,790	21,744	934,809	549,233
-5,775	21,780	934,072	548,894
-4,760	21,790	933,398	548,507
-3,746	21,776	932,966	548,186
-2,731	21,640	932,193	547,284
-1,717	21,569	931,568	546,673
-0,702	21,625	930,746	546,344
0,313	21,401	930,199	546,145
1,327	24,001	927,756	552,797
2,342	31,851	805,876	501,348
3,356	26,862	507,019	306,927
4,371	2,647	372,204	194,674
5,386	-0,200	355,278	182,330
6,400	-1,880	348,798	176,972
7,415	-2,965	346,093	174,292
8,429	-3,177	344,742	173,344
9,444	-3,137	343,568	172,785
10,459	-3,003	342,963	172,624
11,473	-3,101	342,457	172,238
12,488	-2,842	341,877	172,236
13,502	-2,766	341,386	172,063
14,517	-2,968	340,833	171,532
15,531	-3,236	340,262	170,915
16,546	-3,076	339,793	170,852
17,561	-3,077	339,321	170,598
18,575	-3,110	339,013	170,390
19,590	-3,264	338,608	169,991
20,604	-3,035	338,148	170,011
21,619	-3,240	337,689	169,527
22,634	-3,217	337,391	169,389
23,648	-3,074	337,019	169,353
24,663	-2,996	336,814	169,325
25,677	-3,259	336,473	168,835
26,692	-3,177	336,200	168,778
27,707	-3,144	335,852	168,626
28,721	-3,180	335,514	168,399
29,736	-3,193	335,059	168,141
30,750	-3,295	334,993	167,976
31,765	-3,332	334,688	167,766
32,780	-3,181	334,207	167,683
33,794	-3,190	334,021	167,564
34,809	-3,386	333,909	167,268
35,823	-3,173	333,621	167,353
36,838	-3,128	333,058	167,106
37,853	-3,466	332,964	166,658
38,867	-3,189	332,753	166,855
39,882	-3,187	332,272	166,601
40,896	-3,229	331,971	166,387
41,911	-3,175	331,935	166,416
42,926	-3,253	331,610	166,150
43,940	-3,361	331,348	165,880
44,955	-3,330	331,122	165,787
45,969	-3,366	330,575	165,458
46,984	-3,385	330,423	165,346
47,999	-3,493	330,092	165,043
49,013	-3,500	329,704	164,827
50,028	-3,654	329,634	164,603
51,042	-3,821	329,340	164,253
52,057	-3,754	329,076	164,182
53,071	-3,600	328,784	164,195
54,086	-3,541	328,544	164,126
55,101	-3,515	328,328	164,034
56,115	-3,497	328,110	163,930
57,130	-3,255	328,020	164,143
58,144	-3,032	327,819	164,279
59,159	-3,152	327,455	163,947
60,174	-2,975	327,340	164,073
61,188	-3,192	327,074	163,682
62,203	-3,130	326,775	163,587
63,217	-3,062	326,566	163,545
64,232	-3,235	326,298	163,202
65,247	-3,043	326,007	163,256
66,261	-2,961	325,679	163,169
67,276	-3,261	325,490	162,725
68,290	-3,344	325,141	162,443
69,305	-3,519	324,918	162,123
70,320	-3,324	324,652	162,193
71,334	-3,324	324,540	162,122
72,349	-3,048	324,211	162,250
73,363	-3,030	323,928	162,114
74,378	-3,169	323,768	161,865
75,393	-3,154	323,406	161,687
76,407	-3,053	323,202	161,682
77,422	-3,186	322,711	161,274
78,436	-3,231	322,717	161,214
79,451	-3,057	322,395	161,231
80,466	-3,311	322,204	160,841
81,480	-3,326	321,727	160,572
82,495	-3,443	321,496	160,313
83,509	-3,383	321,391	160,313
84,524	-3,504	321,155	160,047
85,539	-3,459	320,911	159,961
86,553	-3,367	320,649	159,917
87,568	-3,455	320,275	159,620
88,582	-3,289	320,129	159,714
89,597	-3,398	319,936	159,485
90,611	-3,274	319,786	159,531
91,626	-3,298	319,489	159,343
92,641	-3,171	319,307	159,376
93,655	-3,245	319,161	159,209
94,670	-3,366	318,831	158,898
95,684	-3,383	318,577	158,739
96,699	-3,283	318,402	158,746
97,714	-3,363	317,987	158,438
98,728	-3,392	317,935	158,367
99,743	-3,489	317,709	158,135
100,757	-3,347	317,381	158,111
101,772	-3,280	316,984	157,972
102,787	-3,401	316,922	157,796
103,801	-3,262	316,685	157,814
104,816	-3,392	316,536	157,585
105,830	-3,229	316,427	157,693
106,845	-3,124	316,043	157,601
107,860	-3,199	315,930	157,450
108,874	-3,193	315,514	157,235
109,889	-3,240	315,309	157,068
110,903	-3,203	314,975	156,928
111,918	-3,371	314,949	156,721
112,933	-3,375	314,759	156,606
113,947	-3,311	314,517	156,541
114,962	-3,078	314,085	156,562
115,976	-3,289	314,164	156,362
116,991	-3,216	313,856	156,272
118,006	-3,208	313,699	156,188
119,020	-3,248	313,488	156,027
120,035	-3,098	313,243	156,051
121,049	-2,963	313,128	156,125
122,064	-3,133	312,871	155,801
123,079	-3,249	312,548	155,502
124,093	-3,270	312,271	155,328
125,108	-3,285	311,990	155,159
126,122	-3,549	311,781	154,760
127,137	-3,569	311,611	154,641
128,151	-3,341	311,368	154,749
129,166	-3,421	311,145	154,539
130,181	-3,555	310,952	154,288
131,195	-3,583	310,812	154,175
132,210	-3,447	310,551	154,175
133,224	-3,279	310,240	154,185
134,239	-3,126	310,047	154,236
135,254	-3,176	309,886	154,091
136,268	-3,322	309,680	153,821
137,283	-3,414	309,343	153,541
138,297	-3,436	309,104	153,386
139,312	-3,340	308,754	153,300
140,327	-3,312	308,749	153,313
141,341	-3,139	308,714	153,465
142,356	-3,151	308,441	153,302
143,370	-3,041	308,296	153,332
144,385	-2,972	307,996	153,241
145,400	-2,887	307,582	153,110
146,414	-2,766	307,586	153,226
147,429	-2,983	307,456	152,920
148,443	-3,037	307,192	152,719
149,458	-3,033	306,987	152,608
150,473	-2,757	306,828	152,803
151,487	-2,878	306,578	152,538
152,502	-2,853	306,204	152,365
153,516	-2,910	306,047	152,214
154,531	-2,979	305,897	152,054
155,546	-3,067	305,618	151,811
156,560	-3,003	305,377	151,743
157,575	-3,123	305,074	151,455
158,589	-3,134	305,055	151,420
159,604	-2,898	304,835	151,543
160,619	-3,044	304,629	151,275
161,633	-2,949	304,332	151,213
162,648	-3,151	304,191	150,920
163,662	-3,055	304,123	150,972
164,677	-2,857	303,583	150,895
165,692	-2,942	303,469	150,737
166,706	-2,902	303,379	150,720
167,721	-2,999	303,248	150,542
168,735	-2,879	303,026	150,541
169,750	-2,869	302,842	150,447
170,764	-2,903	302,792	150,374
171,779	-2,839	302,541	150,301
172,794	-2,777	302,241	150,203
173,808	-2,929	302,021	149,924
174,823	-3,235	301,581	149,379
175,837	-3,515	301,551	149,064
176,852	-3,138	301,462	149,392
177,867	-2,997	301,323	149,455
178,881	-2,955	301,010	149,329
179,896	-2,850	300,800	149,319
180,910	-2,733	300,601	149,326
181,925	-2,790	300,485	149,197
182,940	-2,852	300,266	149,012
183,954	-2,994	300,016	148,730
184,969	-2,923	299,758	148,660
185,983	-2,822	299,567	148,656
186,998	-2,928	299,434	148,469
188,013	-2,810	299,291	148,503
189,027	-2,909	299,100	148,296
190,042	-3,052	298,874	148,026
191,056	-2,726	298,586	148,199
192,071	-3,041	298,652	147,900
193,086	-2,596	298,213	148,119
194,100	-2,815	298,018	147,789
195,115	-2,864	297,763	147,599
196,129	-2,865	297,556	147,482
197,144	-2,855	297,305	147,355
198,159	-2,771	297,175	147,362
199,173	-2,728	296,828	147,220
200,188	-2,767	296,749	147,128
201,202	-2,974	296,552	146,809
202,217	-3,142	296,132	146,421
203,232	-3,367	296,030	146,131
204,246	-3,121	295,765	146,234
205,261	-2,927	295,619	146,342
206,275	-2,769	295,568	146,462
207,290	-2,807	295,357	146,307
208,304	-2,974	295,320	146,108
209,319	-3,037	294,957	145,853
210,334	-2,850	294,608	145,854
211,348	-2,932	294,470	145,691
212,363	-2,772	294,213	145,710
213,377	-2,857	294,081	145,547
214,392	-3,023	294,053	145,355
215,407	-3,175	293,744	145,038
216,421	-3,295	293,547	144,810
217,436	-3,330	293,283	144,631
218,450	-3,093	293,083	144,755
219,465	-3,165	292,866	144,563
220,480	-3,041	292,718	144,600
221,494	-2,984	292,539	144,555
222,509	-3,017	292,434	144,457
223,523	-2,962	292,264	144,415
224,538	-2,728	291,952	144,479
225,553	-2,892	291,690	144,175
226,567	-2,806	291,597	144,200
227,582	-2,681	291,493	144,259
228,596	-2,914	291,409	143,976
229,611	-2,797	291,212	143,981
230,626	-2,961	291,082	143,743
231,640	-3,330	290,795	143,225
232,655	-3,332	290,341	142,987
233,669	-3,334	290,211	142,908
234,684	-3,144	289,901	142,929
235,699	-3,215	289,777	142,785
236,713	-3,279	289,614	142,630
237,728	-3,112	289,541	142,744
238,742	-3,015	289,401	142,757
239,757	-2,985	289,170	142,660
240,772	-2,932	288,881	142,557
241,786	-2,956	288,714	142,438
242,801	-3,078	288,689	142,294
243,815	-3,013	288,505	142,253
244,830	-2,930	288,310	142,226
245,844	-3,150	288,009	141,851
246,859	-3,129	287,939	141,824
247,874	-3,224	287,796	141,649
248,888	-2,988	287,499	141,719
249,903	-2,908	287,365	141,717
250,917	-2,893	287,279	141,677
251,932	-2,659	287,178	141,841
252,947	-2,099	287,271	142,416
253,961	-2,441	286,657	141,769
254,976	-1,691	287,319	142,809
255,990	0,995	288,172	145,825
257,005	2,037	288,288	146,880
258,020	3,348	288,584	148,287
259,034	3,437	288,545	148,339
260,049	3,290	288,054	147,932
261,063	3,047	287,931	147,621
262,078	3,363	287,883	147,888
263,093	3,961	287,847	148,434
264,107	3,971	287,654	148,331
265,122	4,172	287,518	148,441
266,136	4,588	287,419	148,777
267,151	4,209	287,165	148,268
268,166	3,826	287,023	147,813
269,180	4,008	286,838	147,880
270,195	4,045	286,674	147,818
271,209	3,946	286,573	147,657
272,224	3,956	286,259	147,492
273,239	3,894	286,167	147,371
274,253	3,759	285,714	146,996
275,268	4,074	285,817	147,338
276,282	4,058	285,543	147,168
277,297	4,055	285,444	147,101
278,312	4,607	285,431	147,608
279,326	4,395	285,062	147,202
280,341	4,214	284,830	146,897
281,355	3,939	284,559	146,481
282,370	3,913	284,301	146,311
283,384	4,036	284,134	146,329
284,399	4,029	284,133	146,309
285,414	4,055	283,845	146,172
286,428	4,003	283,720	146,045
287,443	3,622	283,370	145,492
288,457	3,580	283,128	145,314
289,472	3,527	282,928	145,148
290,487	3,552	282,818	145,103
291,501	3,557	282,437	144,899
292,516	3,355	282,245	144,597
293,530	3,312	282,141	144,490
294,545	3,572	282,151	144,727
295,560	3,858	281,836	144,823
296,574	3,601	281,779	144,539
297,589	3,759	281,581	144,572
298,603	3,947	281,533	144,712
299,618	3,950	281,292	144,578
300,633	3,841	281,111	144,370
301,647	3,777	280,914	144,196
302,662	3,781	280,742	144,098
303,676	3,591	280,491	143,778
304,691	3,428	280,203	143,465
305,706	3,204	279,859	143,067
306,720	3,218	279,658	142,964
307,735	3,055	279,691	142,817
308,749	3,476	279,517	143,108
309,764	3,406	279,346	142,943
310,779	3,432	278,919	142,736
311,793	3,270	278,836	142,529
312,808	3,286	278,894	142,562
313,822	3,410	278,563	142,494
314,837	3,266	278,324	142,226
315,852	3,073	278,105	141,922
316,866	3,301	278,019	142,077
317,881	3,370	277,735	141,983
318,895	3,303	277,660	141,870
319,910	2,992	277,454	141,465
320,925	3,124	277,147	141,417
321,939	3,051	277,269	141,400
322,954	3,491	276,997	141,655
323,968	3,441	276,877	141,534
324,983	3,555	276,624	141,498
325,997	3,625	276,501	141,487
327,012	3,515	276,484	141,364
328,027	3,474	276,118	141,126
329,041	3,401	275,851	140,910
330,056	3,690	275,751	141,112
331,070	3,417	275,588	140,765
332,085	3,243	275,352	140,473
333,100	3,742	275,220	140,851
334,114	3,237	275,050	140,288
335,129	3,122	274,795	140,040
336,143	3,537	274,639	140,328
337,158	3,982	274,590	140,697
338,173	3,551	274,362	140,174
339,187	3,247	274,215	139,809
340,202	3,528	274,141	140,016
341,216	3,333	273,970	139,737
342,231	3,695	273,673	139,904
343,246	3,456	273,542	139,606
344,260	3,486	273,203	139,448
345,275	3,733	273,179	139,648
346,289	3,859	273,257	139,790
347,304	3,763	273,037	139,578
348,319	3,771	272,660	139,380
349,333	3,514	272,571	139,089
350,348	3,719	272,475	139,213
351,362	4,058	272,166	139,350
352,377	3,789	272,135	139,078
353,392	3,682	271,989	138,895
354,406	3,846	271,833	138,951
355,421	192,831	1329,787	1411,639
356,435	155,829	1458,771	1411,755
