DTS Sentinel unit serial number:	SN410029Multiplexer serial number:	ORYXHardware model number:	OX2-SRSoftware version number:	ORYX F/W v4,00 Oryx Data Collector v3.7.2.0data status	okinstallation	B4 Nyhavnadifferential loss correction	single-endedforward channel	channel 2reverse channel	N/Adate	2023/12/19time	05:50:13forward acquisition time	300,00reverse acquisition time	0,00gamma	499,1914k internal	0,3127k external	0,3127temperature offset calibration	1,0000default loss term (dB/km)	0,3820temperature slope calibration	1,0000multiplexer offset coefficient	1,0000multiplexer slope coefficient	1,0000fibre end	0,00T internal ref (°C)	21,03T ext. ref 1 (°C)	6,26T ext. ref 2 (°C)	6,48length (m)	temperature (°C)	Stokes	anti-Stokes-744,400	777,751	0,052	-0,106
-743,385	65,910	-0,166	0,126
-742,371	-159,533	0,092	-0,004
-741,356	15,599	-0,211	0,123
-740,342	-200,000	-0,010	-0,041
-739,327	86,529	-0,144	0,118
-738,312	-200,000	0,003	0,080
-737,298	3,603	-0,231	0,125
-736,283	95,123	-0,086	-0,073
-735,269	-55,825	-0,186	0,062
-734,254	-65,146	-0,077	-0,023
-733,239	-136,469	-0,429	0,037
-732,225	254,131	0,103	0,132
-731,210	-200,000	0,018	-0,133
-730,196	-2,431	-0,129	-0,067
-729,181	609,045	-0,043	-0,080
-728,167	800,000	-0,052	0,140
-727,152	-100,295	0,054	-0,010
-726,137	275,368	-0,015	-0,020
-725,123	65,368	-0,154	-0,116
-724,108	236,092	-0,083	-0,102
-723,094	-64,158	-0,087	0,026
-722,079	-187,980	-0,122	0,001
-721,064	-107,627	-0,037	0,006
-720,050	-63,503	0,089	0,027
-719,035	-144,901	0,027	0,002
-718,021	-200,000	0,005	-0,018
-717,006	-97,582	-0,018	0,004
-715,991	717,994	-0,060	-0,118
-714,977	-141,267	-0,151	-0,011
-713,962	-200,000	-0,011	0,095
-712,948	66,628	-0,075	0,057
-711,933	73,193	-0,084	0,065
-710,918	-200,000	-0,029	-0,186
-709,904	184,022	-0,047	0,052
-708,889	1,256	-0,119	-0,063
-707,875	527,867	-0,089	-0,157
-706,860	741,754	0,058	0,116
-705,845	-105,661	-0,063	0,011
-704,831	441,905	0,061	0,100
-703,816	23,676	-0,103	-0,063
-702,802	273,144	-0,131	-0,173
-701,787	243,924	-0,019	0,024
-700,772	512,687	-0,061	-0,106
-699,758	723,569	0,006	-0,012
-698,743	-200,000	0,024	-0,086
-697,729	-200,000	0,015	0,076
-696,714	-200,000	-0,031	0,127
-695,699	541,820	-0,049	0,088
-694,685	-200,000	-0,008	0,040
-693,670	-99,632	-0,046	-0,008
-692,656	-200,000	0,018	-0,079
-691,641	-200,000	0,009	-0,080
-690,627	279,558	0,072	0,096
-689,612	-200,000	0,010	0,058
-688,597	800,000	-0,030	-0,090
-687,583	247,899	-0,107	-0,134
-686,568	503,936	-0,035	-0,061
-685,554	-200,000	-0,020	-0,067
-684,539	-200,000	0,011	0,112
-683,524	-43,965	-0,110	-0,041
-682,510	-44,595	0,126	-0,047
-681,495	-90,215	-0,129	0,028
-680,481	-200,000	-0,043	-0,144
-679,466	800,000	-0,020	-0,058
-678,451	800,000	-0,030	-0,085
-677,437	102,045	0,084	-0,073
-676,422	104,666	-0,046	-0,040
-675,408	800,000	0,041	0,116
-674,393	773,833	-0,056	0,114
-673,378	520,410	-0,055	-0,096
-672,364	-200,000	0,001	-0,081
-671,349	335,220	-0,114	-0,165
-670,335	-200,000	0,005	0,027
-669,320	59,708	0,064	0,046
-668,305	1,643	-0,013	-0,007
-667,291	-113,676	0,094	-0,013
-666,276	-48,137	-0,041	0,015
-665,262	340,145	0,042	-0,060
-664,247	-200,000	-0,020	-0,210
-663,232	381,152	-0,055	-0,083
-662,218	216,021	-0,063	0,074
-661,203	163,081	0,062	-0,065
-660,189	800,000	0,017	0,053
-659,174	-94,190	-0,101	0,020
-658,159	-200,000	-0,010	-0,059
-657,145	188,483	-0,050	-0,055
-656,130	-121,257	-0,117	-0,014
-655,116	-200,000	0,002	-0,044
-654,101	-200,000	0,015	0,065
-653,086	89,697	-0,072	-0,060
-652,072	-119,893	0,056	-0,007
-651,057	800,000	-0,015	-0,039
-650,043	240,954	-0,036	-0,045
-649,028	111,258	0,034	0,030
-648,014	-150,177	0,173	0,010
-646,999	-65,820	0,037	0,011
-645,984	569,278	0,024	-0,043
-644,970	-84,499	-0,144	-0,034
-643,955	-200,000	-0,024	-0,106
-642,941	-200,000	-0,016	-0,110
-641,926	-25,637	-0,063	0,028
-640,911	-200,000	0,011	-0,072
-639,897	272,298	-0,032	0,042
-638,882	675,324	-0,007	0,014
-637,868	138,390	0,061	-0,059
-636,853	-200,000	-0,011	-0,180
-635,838	-200,000	0,018	-0,100
-634,824	114,292	0,195	-0,176
-633,809	480,628	0,056	-0,095
-632,795	33,622	0,070	-0,045
-631,780	682,105	-0,040	-0,078
-630,765	48,248	0,086	0,060
-629,751	-200,000	-0,053	-0,233
-628,736	-72,789	-0,065	-0,018
-627,722	-200,000	0,015	-0,157
-626,707	666,388	0,033	-0,064
-625,692	800,000	0,009	-0,022
-624,678	225,740	0,040	0,049
-623,663	131,525	0,045	0,043
-622,649	2,050	-0,107	-0,057
-621,634	391,713	-0,058	0,089
-620,619	257,812	0,052	0,067
-619,605	305,772	0,024	0,034
-618,590	224,368	-0,038	0,046
-617,576	800,000	-0,043	0,104
-616,561	256,588	0,093	0,119
-615,546	-200,000	-0,007	0,054
-614,532	94,544	0,052	0,044
-613,517	800,000	-0,044	0,105
-612,503	267,291	-0,090	0,117
-611,488	-95,384	-0,107	0,021
-610,474	-200,000	-0,005	0,055
-609,459	12,335	-0,034	-0,019
-608,444	-200,000	0,004	0,017
-607,430	348,893	-0,035	-0,051
-606,415	800,000	-0,031	-0,080
-605,401	-93,453	0,052	0,011
-604,386	214,336	0,025	0,030
-603,371	-200,000	-0,007	0,086
-602,357	-200,000	-0,005	-0,086
-601,342	75,731	-0,039	-0,030
-600,328	-200,000	-0,017	0,072
-599,313	390,892	-0,013	-0,020
-598,298	-46,619	-0,011	-0,004
-597,284	294,801	0,100	0,136
-596,269	313,715	0,027	0,038
-595,255	38,859	-0,029	0,019
-594,240	-78,455	-0,069	-0,017
-593,225	-200,000	0,001	-0,119
-592,211	-69,834	0,030	0,008
-591,196	-200,000	0,003	-0,098
-590,182	800,000	0,023	-0,064
-589,167	6,653	0,082	0,045
-588,152	63,028	-0,106	-0,079
-587,138	273,244	0,045	-0,058
-586,123	800,000	0,003	0,008
-585,109	800,000	-0,025	-0,077
-584,094	366,653	0,054	-0,081
-583,079	123,311	0,061	0,056
-582,065	72,622	0,032	0,024
-581,050	550,896	0,011	0,020
-580,036	-22,819	0,055	0,024
-579,021	800,000	-0,070	-0,186
-578,006	19,959	-0,026	-0,016
-576,992	800,000	-0,018	0,039
-575,977	0,026	-0,038	0,020
-574,963	-200,000	-0,027	0,142
-573,948	-70,679	-0,054	-0,015
-572,934	-28,300	0,088	-0,037
-571,919	-177,318	0,112	0,002
-570,904	97,777	0,032	-0,027
-569,890	-70,546	0,041	0,012
-568,875	800,000	0,042	0,089
-567,861	147,866	0,042	0,042
-566,846	-50,750	-0,106	0,037
-565,831	-1,641	0,057	-0,030
-564,817	-123,052	-0,073	0,009
-563,802	73,184	-0,139	-0,107
-562,788	102,402	0,113	0,098
-561,773	55,217	-0,010	0,007
-560,758	509,440	-0,057	-0,098
-559,744	82,297	-0,048	0,039
-558,729	63,052	0,014	0,010
-557,715	-45,926	-0,159	0,058
-556,700	-200,000	0,013	-0,133
-555,685	-200,000	0,002	-0,037
-554,671	101,776	0,061	0,052
-553,656	-200,000	-0,007	-0,039
-552,642	82,610	0,049	0,040
-551,627	672,167	0,017	-0,032
-550,612	800,000	0,015	-0,040
-549,598	800,000	0,049	-0,157
-548,583	31,436	-0,110	-0,070
-547,569	-200,000	0,002	0,062
-546,554	51,192	0,084	0,059
-545,539	-200,000	0,012	0,098
-544,525	480,015	-0,046	0,077
-543,510	-154,712	0,057	-0,003
-542,496	800,000	0,013	-0,041
-541,481	-200,000	-0,023	-0,082
-540,466	465,747	0,024	-0,039
-539,452	-124,726	-0,085	0,010
-538,437	24,977	0,047	0,028
-537,423	-59,891	0,069	-0,022
-536,408	82,512	0,109	-0,087
-535,393	7,095	-0,099	-0,054
-534,379	382,652	-0,047	0,072
-533,364	-173,003	-0,066	0,001
-532,350	-4,232	0,137	0,070
-531,335	58,622	0,104	-0,075
-530,321	10,713	-0,099	0,055
-529,306	81,463	0,117	0,093
-528,291	-77,129	0,056	-0,014
-527,277	580,600	0,036	-0,065
-526,262	334,173	-0,054	-0,077
-525,248	-200,000	-0,028	0,121
-524,233	-113,557	-0,048	0,007
-523,218	691,260	-0,048	-0,093
-522,204	68,416	0,053	-0,040
-521,189	-46,516	-0,037	-0,013
-520,175	122,665	-0,051	0,047
-519,160	226,159	-0,047	0,057
-518,145	-197,262	0,223	-0,001
-517,131	-200,000	-0,020	-0,079
-516,116	-70,676	0,021	0,006
-515,102	69,198	-0,040	0,030
-514,087	-34,331	0,086	0,035
-513,072	245,633	-0,029	-0,036
-512,058	-116,139	-0,197	0,027
-511,043	-200,000	-0,023	0,090
-510,029	-175,245	0,085	0,002
-509,014	355,259	-0,033	0,049
-507,999	-200,000	0,009	-0,041
-506,985	666,799	0,006	-0,011
-505,970	800,000	-0,034	-0,078
-504,956	344,398	-0,042	-0,060
-503,941	-80,757	-0,076	0,018
-502,926	-200,000	0,005	0,045
-501,912	-200,000	-0,018	0,122
-500,897	800,000	-0,015	0,039
-499,883	800,000	0,046	-0,101
-498,868	-200,000	0,002	-0,094
-497,853	728,399	-0,054	-0,106
-496,839	249,904	-0,007	0,009
-495,824	-34,026	0,248	-0,100
-494,810	678,458	-0,020	-0,038
-493,795	45,859	0,054	0,037
-492,781	-200,000	0,043	0,143
-491,766	-166,626	0,096	0,003
-490,751	-200,000	-0,011	-0,055
-489,737	269,257	0,016	-0,021
-488,722	-200,000	-0,019	0,082
-487,708	128,735	-0,060	-0,056
-486,693	800,000	0,011	0,026
-485,678	800,000	0,038	-0,091
-484,664	201,874	0,034	-0,039
-483,649	516,331	0,034	0,058
-482,635	800,000	0,028	0,065
-481,620	-200,000	0,017	0,057
-480,605	576,949	-0,056	0,101
-479,591	31,995	-0,040	-0,025
-478,576	396,345	0,019	0,030
-477,562	-88,232	-0,159	-0,035
-476,547	-35,645	0,113	0,045
-475,532	23,928	-0,068	0,041
-474,518	124,008	0,080	0,074
-473,503	37,276	0,082	0,054
-472,489	340,358	0,027	-0,038
-471,474	150,714	0,080	0,080
-470,459	800,000	-0,033	0,075
-469,445	83,668	-0,055	-0,044
-468,430	0,159	-0,145	-0,076
-467,416	800,000	0,028	0,068
-466,401	-200,000	0,007	0,087
-465,386	736,063	0,013	0,026
-464,372	800,000	-0,024	0,067
-463,357	800,000	0,037	0,076
-462,343	800,000	-0,007	0,023
-461,328	416,807	0,046	0,072
-460,313	25,739	0,026	0,016
-459,299	0,424	0,105	-0,055
-458,284	185,927	-0,033	0,036
-457,270	110,346	0,012	-0,011
-456,255	-136,849	-0,127	-0,011
-455,241	-102,581	-0,129	-0,022
-454,226	203,502	0,035	0,039
-453,211	-200,000	-0,013	0,170
-452,197	783,948	0,038	0,078
-451,182	-134,252	0,096	0,009
-450,168	445,431	-0,095	-0,153
-449,153	2,861	-0,046	0,024
-448,138	-200,000	-0,019	-0,203
-447,124	-200,000	-0,036	-0,135
-446,109	133,282	0,064	0,061
-445,095	-68,801	0,108	0,031
-444,080	683,386	0,034	0,065
-443,065	-200,000	-0,014	0,119
-442,051	800,000	-0,031	-0,090
-441,036	618,545	-0,085	-0,159
-440,022	67,055	-0,121	-0,091
-439,007	-200,000	-0,027	-0,113
-437,992	-200,000	0,021	-0,076
-436,978	800,000	-0,012	0,027
-435,963	186,586	-0,063	0,069
-434,949	-120,895	0,136	-0,017
-433,934	-48,232	0,071	-0,025
-432,919	-200,000	0,001	0,035
-431,905	-200,000	-0,015	0,061
-430,890	800,000	-0,026	0,060
-429,876	16,629	-0,102	-0,059
-428,861	-120,588	0,077	-0,009
-427,846	-44,775	0,058	-0,021
-426,832	308,224	0,080	-0,110
-425,817	-200,000	0,015	-0,093
-424,803	-184,986	0,051	-0,001
-423,788	-200,000	-0,006	-0,049
-422,773	332,213	-0,003	-0,004
-421,759	12,652	0,066	0,037
-420,744	47,034	-0,078	-0,053
-419,730	800,000	-0,006	-0,013
-418,715	-200,000	-0,009	-0,086
-417,701	149,663	-0,035	-0,034
-416,686	-200,000	-0,027	0,157
-415,671	148,261	0,044	0,044
-414,657	187,079	-0,036	0,039
-413,642	656,081	0,062	0,118
-412,628	6,115	0,043	-0,023
-411,613	787,530	0,034	-0,068
-410,598	-96,525	-0,071	0,014
-409,584	89,864	-0,102	0,084
-408,569	595,297	0,027	0,050
-407,555	188,861	0,025	0,027
-406,540	-16,995	-0,099	0,046
-405,525	46,602	-0,141	0,096
-404,511	392,711	0,022	0,033
-403,496	636,710	-0,008	0,015
-402,482	351,290	-0,042	-0,061
-401,467	259,026	0,040	-0,051
-400,452	325,098	-0,012	0,017
-399,438	-73,354	-0,137	-0,036
-398,423	-200,000	-0,003	0,107
-397,409	-32,499	0,038	-0,015
-396,394	-86,714	-0,158	-0,035
-395,379	-123,654	0,063	0,007
-394,365	722,001	-0,035	0,068
-393,350	-200,000	-0,052	0,184
-392,336	-200,000	-0,046	0,000
-391,321	229,170	-0,003	0,003
-390,306	-66,224	0,125	0,036
-389,292	-104,726	0,027	-0,004
-388,277	28,750	-0,039	0,024
-387,263	-200,000	-0,005	-0,030
-386,248	-200,000	0,006	0,104
-385,233	-85,070	0,059	-0,013
-384,219	-130,797	-0,036	0,004
-383,204	-190,257	-0,088	-0,001
-382,190	163,620	-0,022	0,023
-381,175	56,834	0,095	0,068
-380,160	-200,000	0,003	0,167
-379,146	800,000	-0,030	-0,076
-378,131	-200,000	-0,004	-0,055
-377,117	-50,644	0,052	0,018
-376,102	800,000	-0,041	-0,098
-375,088	-200,000	-0,007	-0,118
-374,073	-138,826	-0,143	0,011
-373,058	-103,451	-0,124	0,021
-372,044	800,000	-0,006	-0,015
-371,029	-11,606	-0,059	0,028
-370,015	-200,000	0,023	0,084
-369,000	70,530	-0,051	-0,039
-367,985	720,540	0,044	-0,087
-366,971	14,869	0,059	0,034
-365,956	217,130	0,070	-0,082
-364,942	-200,000	-0,026	0,155
-363,927	47,404	0,110	0,075
-362,912	529,631	0,058	0,101
-361,898	-200,000	-0,024	-0,168
-360,883	-107,266	0,026	-0,004
-359,869	-200,000	0,028	-0,100
-358,854	-200,000	-0,007	-0,049
-357,839	238,610	0,072	0,089
-356,825	-200,000	0,019	0,108
-355,810	-93,528	0,079	0,016
-354,796	800,000	0,064	-0,176
-353,781	462,660	0,078	0,129
-352,766	-200,000	-0,012	-0,054
-351,752	-191,173	0,108	-0,001
-350,737	-43,278	-0,034	0,012
-349,723	-200,000	0,046	-0,150
-348,708	205,919	-0,120	0,137
-347,693	-200,000	-0,017	-0,128
-346,679	605,171	-0,024	0,043
-345,664	20,124	0,019	0,011
-344,650	-200,000	-0,018	0,062
-343,635	800,000	-0,045	0,121
-342,620	-77,829	0,090	-0,023
-341,606	-200,000	-0,003	0,025
-340,591	800,000	0,027	-0,083
-339,577	-200,000	0,020	-0,069
-338,562	-20,687	0,051	0,023
-337,548	-55,388	0,052	-0,017
-336,533	-200,000	-0,028	0,173
-335,518	16,863	-0,036	0,021
-334,504	7,569	-0,104	0,057
-333,489	-20,523	-0,080	-0,036
-332,475	-11,382	0,101	-0,049
-331,460	231,443	-0,113	-0,136
-330,445	-200,000	-0,013	0,157
-329,431	-140,398	0,079	-0,006
-328,416	-14,785	0,198	0,093
-327,402	-53,280	-0,075	-0,025
-326,387	59,228	-0,073	-0,053
-325,372	-169,236	-0,103	-0,003
-324,358	800,000	0,017	-0,038
-323,343	-200,000	-0,020	0,141
-322,329	800,000	-0,027	0,087
-321,314	241,351	0,123	-0,150
-320,299	338,240	0,047	-0,067
-319,285	181,050	-0,046	0,050
-318,270	-41,152	0,028	0,011
-317,256	105,254	-0,112	0,097
-316,241	-200,000	-0,018	-0,077
-315,226	-35,116	0,069	0,027
-314,212	800,000	-0,027	0,082
-313,197	172,871	0,088	0,093
-312,183	-54,569	-0,052	0,017
-311,168	-200,000	0,014	0,116
-310,153	557,829	0,006	-0,011
-309,139	138,897	0,077	0,074
-308,124	800,000	0,012	0,027
-307,110	-89,116	0,143	0,031
-306,095	-72,807	0,011	-0,003
-305,080	415,410	0,064	-0,101
-304,066	-141,666	0,046	0,003
-303,051	310,758	0,017	-0,024
-302,037	398,158	0,059	0,091
-301,022	324,323	0,008	-0,011
-300,008	-200,000	-0,028	0,174
-298,993	-200,000	-0,013	0,121
-297,978	-24,834	0,157	-0,068
-296,964	-50,292	0,091	-0,031
-295,949	-200,000	0,003	-0,107
-294,935	-200,000	-0,016	-0,128
-293,920	-15,601	-0,069	-0,032
-292,905	55,545	0,069	-0,049
-291,891	-200,000	0,001	-0,193
-290,876	-123,051	-0,091	-0,011
-289,862	287,460	-0,036	-0,047
-288,847	800,000	-0,039	-0,087
-287,832	288,865	0,096	-0,127
-286,818	-4,978	-0,029	-0,015
-285,803	119,897	-0,119	-0,108
-284,789	80,176	0,123	0,097
-283,774	-46,774	0,023	-0,008
-282,759	430,943	-0,105	-0,167
-281,745	181,118	0,080	-0,086
-280,730	-200,000	0,019	-0,150
-279,716	-121,836	0,079	-0,009
-278,701	91,250	-0,049	0,040
-277,686	-200,000	-0,003	0,091
-276,672	430,022	0,035	-0,056
-275,657	-129,814	0,102	0,010
-274,643	800,000	0,067	0,158
-273,628	-200,000	-0,005	0,025
-272,613	101,613	-0,045	0,039
-271,599	502,482	0,060	0,101
-270,584	364,619	0,135	0,199
-269,570	231,361	-0,082	0,099
-268,555	-88,502	-0,105	0,023
-267,540	-101,634	0,105	0,019
-266,526	309,754	-0,070	-0,097
-265,511	175,706	0,069	0,073
-264,497	-101,947	0,063	0,011
-263,482	-136,209	-0,112	0,009
-262,467	80,501	-0,104	0,082
-261,453	-200,000	0,018	-0,070
-260,438	-200,000	-0,034	-0,152
-259,424	23,048	0,073	0,043
-258,409	24,859	-0,106	0,064
-257,395	-179,638	-0,121	-0,002
-256,380	-140,559	0,025	-0,002
-255,365	153,963	-0,053	0,053
-254,351	-200,000	-0,025	0,088
-253,336	-143,272	0,044	-0,003
-252,322	-90,836	-0,188	-0,039
-251,307	218,974	0,006	-0,007
-250,292	-200,000	0,003	0,072
-249,278	800,000	0,017	-0,046
-248,263	335,134	-0,023	0,033
-247,249	800,000	-0,006	-0,015
-246,234	-18,465	-0,030	0,014
-245,219	-123,411	0,035	-0,004
-244,205	128,637	0,038	0,036
-243,190	-200,000	-0,033	-0,121
-242,176	-200,000	-0,033	0,113
-241,161	307,995	0,026	-0,035
-240,146	-28,209	0,243	0,102
-239,132	-148,226	-0,047	0,003
-238,117	-200,000	0,011	-0,065
-237,103	543,564	-0,029	0,051
-236,088	311,687	0,027	-0,037
-235,073	256,816	0,053	0,067
-234,059	493,019	-0,041	-0,068
-233,044	-106,473	0,136	0,022
-232,030	60,350	-0,058	0,042
-231,015	388,842	-0,131	-0,198
-230,000	574,653	-0,042	-0,076
-228,986	-200,000	0,000	-0,080
-227,971	800,000	0,018	0,053
-226,957	-200,000	0,038	-0,144
-225,942	-67,685	-0,054	0,015
-224,927	-200,000	-0,034	-0,237
-223,913	-200,000	0,001	-0,057
-222,898	-68,155	-0,081	0,023
-221,884	-83,099	0,088	0,021
-220,869	357,854	-0,033	-0,049
-219,855	63,496	0,103	0,076
-218,840	-200,000	-0,017	0,056
-217,825	294,116	-0,079	-0,106
-216,811	-99,574	-0,052	0,009
-215,796	7,886	-0,136	0,074
-214,782	252,145	-0,111	-0,138
-213,767	-4,734	-0,120	-0,060
-212,752	27,480	-0,097	0,059
-211,738	-92,576	0,049	-0,010
-210,723	88,147	0,157	-0,127
-209,709	-200,000	0,006	-0,022
-208,694	3,975	-0,074	-0,040
-207,679	-14,442	-0,062	0,029
-206,665	800,000	-0,017	0,053
-205,650	215,948	0,071	-0,082
-204,636	299,514	-0,058	0,078
-203,621	800,000	-0,119	0,248
-202,606	-135,250	0,033	-0,003
-201,592	326,103	-0,047	-0,065
-200,577	-96,579	0,013	0,002
-199,563	-55,391	-0,069	0,022
-198,548	300,822	0,042	0,056
-197,533	-26,193	0,106	0,045
-196,519	-119,963	-0,040	0,005
-195,504	541,651	-0,082	-0,143
-194,490	244,630	0,058	-0,072
-193,475	-48,947	-0,071	-0,025
-192,460	-200,000	-0,029	0,104
-191,446	800,000	0,020	0,050
-190,431	101,042	-0,055	0,047
-189,417	-149,775	0,053	-0,003
-188,402	-22,657	0,111	-0,049
-187,387	-28,702	-0,178	-0,074
-186,373	293,073	-0,032	0,042
-185,358	-36,865	0,033	-0,013
-184,344	800,000	0,015	0,049
-183,329	555,401	-0,038	0,066
-182,315	138,937	0,021	-0,020
-181,300	2,529	0,007	-0,004
-180,285	232,267	0,031	0,037
-179,271	38,812	-0,036	0,023
-178,256	-37,734	-0,143	0,055
-177,242	800,000	0,022	-0,063
-176,227	-49,764	0,106	-0,036
-175,212	198,186	-0,005	-0,006
-174,198	58,445	-0,064	0,046
-173,183	-200,000	0,029	-0,097
-172,169	-128,132	0,092	0,009
-171,154	800,000	0,020	0,064
-170,139	52,792	0,108	0,075
-169,125	-77,618	0,139	0,035
-168,110	-200,000	0,017	0,065
-167,096	-70,892	-0,085	-0,023
-166,081	303,209	0,032	-0,043
-165,066	384,789	-0,041	-0,062
-164,052	433,188	-0,048	0,076
-163,037	152,221	-0,036	0,035
-162,023	800,000	-0,021	-0,048
-161,008	-67,150	-0,030	-0,009
-159,993	-3,894	0,060	0,030
-158,979	-52,558	-0,053	-0,018
-157,964	-136,351	-0,094	-0,008
-156,950	-37,185	-0,056	-0,022
-155,935	-95,645	0,039	0,008
-154,920	16,816	-0,093	0,054
-153,906	-28,491	0,085	-0,035
-152,891	63,849	-0,099	0,073
-151,877	-200,000	0,036	-0,134
-150,862	-200,000	0,003	0,044
-149,847	800,000	0,018	-0,058
-148,833	218,051	0,136	0,159
-147,818	800,000	0,018	0,058
-146,804	-87,127	0,094	0,021
-145,789	121,367	-0,054	0,049
-144,775	-31,115	-0,066	-0,027
-143,760	769,087	0,046	-0,091
-142,745	-200,000	-0,016	-0,108
-141,731	54,215	0,094	0,065
-140,716	-200,000	-0,010	0,064
-139,702	-142,569	0,116	0,008
-138,687	54,546	-0,086	0,060
-137,672	-67,461	-0,056	-0,016
-136,658	-200,000	0,036	-0,162
-135,643	620,975	0,051	-0,093
-134,629	-57,323	0,014	-0,005
-133,614	110,484	0,140	0,123
-132,599	125,758	-0,029	0,027
-131,585	800,000	0,027	-0,060
-130,570	800,000	0,011	-0,030
-129,556	800,000	-0,035	0,074
-128,541	800,000	-0,033	-0,096
-127,526	-24,686	0,063	-0,027
-126,512	-90,182	-0,120	0,025
-125,497	-25,996	0,114	-0,049
-124,483	-154,096	0,062	0,003
-123,468	-200,000	-0,027	0,102
-122,453	-200,000	0,006	0,028
-121,439	190,853	-0,068	-0,074
-120,424	800,000	-0,026	0,062
-119,410	550,493	-0,046	0,081
-118,395	-7,937	0,010	0,005
-117,380	-200,000	0,003	-0,071
-116,366	534,403	0,088	-0,152
-115,351	-131,844	-0,003	0,000
-114,337	-200,000	-0,003	-0,070
-113,322	176,414	0,036	0,038
-112,307	-200,000	0,004	0,048
-111,293	-200,000	-0,005	0,034
-110,278	-200,000	-0,002	0,039
-109,264	-25,520	0,105	0,045
-108,249	-200,000	-0,002	-0,090
-107,234	-42,191	-0,115	0,043
-106,220	115,612	-0,043	0,039
-105,205	-200,000	0,010	-0,033
-104,191	9,555	-0,069	-0,038
-103,176	47,371	0,011	0,007
-102,162	-179,200	-0,037	-0,001
-101,147	800,000	-0,024	0,068
-100,132	-200,000	-0,005	0,042
-99,118	-81,859	-0,028	-0,007
-98,103	800,000	-0,009	0,024
-97,089	800,000	0,029	0,062
-96,074	800,000	-0,012	0,033
-95,059	391,320	-0,035	0,052
-94,045	-200,000	0,013	-0,269
-93,030	653,885	0,049	-0,091
-92,016	313,470	0,018	-0,025
-91,001	-155,105	0,052	0,002
-89,986	800,000	-0,023	-0,054
-88,972	-127,334	0,135	-0,014
-87,957	800,000	-0,032	0,067
-86,943	-65,453	0,168	0,049
-85,928	4,087	0,100	-0,053
-84,913	-34,386	-0,119	0,047
-83,899	-200,000	-0,020	0,110
-82,884	-59,754	-0,167	0,052
-81,870	288,040	-0,091	-0,120
-80,855	216,718	0,006	0,006
-79,840	71,106	0,049	-0,037
-78,826	231,600	-0,012	-0,014
-77,811	800,000	0,004	0,011
-76,797	-148,763	0,087	0,005
-75,782	37,966	0,037	-0,024
-74,767	800,000	0,028	0,087
-73,753	-7,230	0,117	-0,057
-72,738	6,815	-0,087	0,047
-71,724	800,000	0,057	-0,135
-70,709	800,000	-0,036	0,085
-69,694	-200,000	-0,012	-0,043
-68,680	-200,000	-0,003	0,021
-67,665	233,227	0,032	0,038
-66,651	800,000	0,044	-0,103
-65,636	206,712	-0,033	0,037
-64,622	115,177	-0,086	0,077
-63,607	800,000	0,055	0,130
-62,592	458,059	0,083	-0,135
-61,578	-95,115	-0,095	-0,018
-60,563	497,913	-0,071	-0,118
-59,549	-200,000	0,010	0,097
-58,534	-117,520	-1,437	-0,186
-57,519	614,448	-0,808	-1,473
-56,505	-200,000	-0,855	-4,396
-55,490	-96,686	0,633	-0,120
-54,476	800,000	4,986	11,693
-53,461	-200,000	14,610	260,225
-52,446	-200,000	695,486	2275,650
-51,432	603,328	1621,937	2936,171
-50,417	118,500	1630,186	1458,047
-49,403	76,274	1283,753	984,249
-48,388	37,415	1021,489	654,952
-47,373	23,269	980,794	582,400
-46,359	22,490	969,996	573,417
-45,344	21,279	965,764	566,938
-44,330	21,227	964,463	565,984
-43,315	21,110	962,783	564,594
-42,300	21,097	961,821	563,965
-41,286	21,086	960,914	563,376
-40,271	21,114	959,810	562,797
-39,257	21,013	959,032	561,992
-38,242	21,095	957,918	561,582
-37,227	21,042	957,198	560,967
-36,213	21,044	956,081	560,297
-35,198	20,988	955,392	559,690
-34,184	21,069	954,652	559,494
-33,169	21,002	953,724	558,713
-32,154	21,090	952,909	558,498
-31,140	21,052	951,993	557,816
-30,125	21,101	951,249	557,516
-29,111	21,085	950,449	556,973
-28,096	21,120	949,692	556,618
-27,082	21,051	949,070	556,010
-26,067	21,104	948,111	555,598
-25,052	21,088	947,417	555,117
-24,038	21,076	946,985	554,803
-23,023	21,055	946,182	554,244
-22,009	21,050	945,604	553,868
-20,994	21,147	944,816	553,693
-19,979	21,095	944,316	553,213
-18,965	21,110	943,624	552,832
-17,950	21,143	942,915	552,501
-16,936	21,072	942,457	551,986
-15,921	21,021	941,801	551,416
-14,906	20,930	941,100	550,693
-13,892	20,984	940,380	550,422
-12,877	20,928	939,889	549,934
-11,863	20,873	939,124	549,293
-10,848	20,938	938,719	549,240
-9,833	21,062	938,175	549,292
-8,819	21,037	937,545	548,821
-7,804	20,945	937,011	548,198
-6,790	20,963	936,416	547,884
-5,775	20,950	935,818	547,471
-4,760	20,989	935,111	547,160
-3,746	20,888	934,688	546,570
-2,731	20,801	933,854	545,786
-1,717	20,795	933,006	545,249
-0,702	20,786	932,470	544,886
0,313	20,582	931,812	544,684
1,327	23,156	929,358	551,279
2,342	30,865	806,564	499,277
3,356	25,643	507,733	305,376
4,371	1,642	373,800	194,281
5,386	-1,363	356,886	181,784
6,400	-2,839	350,788	176,879
7,415	-3,601	347,913	174,502
8,429	-3,735	346,489	173,611
9,444	-3,816	345,586	173,046
10,459	-3,844	344,989	172,699
11,473	-3,812	344,505	172,479
12,488	-3,661	343,756	172,267
13,502	-3,906	343,321	171,744
14,517	-3,766	342,609	171,539
15,531	-3,843	342,069	171,162
16,546	-3,834	341,709	170,978
17,561	-3,901	341,241	170,650
18,575	-3,857	340,885	170,508
19,590	-3,861	340,556	170,323
20,604	-3,678	340,003	170,246
21,619	-3,662	339,697	170,096
22,634	-3,727	339,417	169,865
23,648	-3,796	338,938	169,529
24,663	-3,829	338,744	169,378
25,677	-3,835	338,501	169,235
26,692	-3,718	338,166	169,189
27,707	-3,766	337,790	168,930
28,721	-3,766	337,345	168,692
29,736	-3,814	337,183	168,541
30,750	-3,747	336,837	168,430
31,765	-3,889	336,672	168,169
32,780	-3,732	336,414	168,206
33,794	-3,703	336,106	168,070
34,809	-3,774	335,790	167,815
35,823	-3,755	335,519	167,687
36,838	-3,911	335,281	167,373
37,853	-3,862	334,881	167,216
38,867	-3,693	334,454	167,181
39,882	-3,927	334,408	166,875
40,896	-3,878	334,165	166,794
41,911	-3,963	333,956	166,578
42,926	-3,800	333,491	166,518
43,940	-3,874	333,210	166,278
44,955	-3,697	332,850	166,286
45,969	-3,844	332,693	166,024
46,984	-3,734	332,500	166,039
47,999	-3,681	332,248	165,959
49,013	-3,645	331,899	165,810
50,028	-3,922	331,882	165,472
51,042	-3,845	331,603	165,405
52,057	-3,686	331,231	165,386
53,071	-3,784	330,956	165,123
54,086	-3,722	330,814	165,108
55,101	-3,649	330,269	164,904
56,115	-4,031	330,438	164,540
57,130	-3,761	329,936	164,580
58,144	-3,773	329,573	164,372
59,159	-3,733	329,322	164,277
60,174	-3,763	329,136	164,136
61,188	-3,899	328,816	163,809
62,203	-3,654	328,563	163,944
63,217	-3,746	328,320	163,704
64,232	-3,873	328,140	163,457
65,247	-3,698	327,797	163,468
66,261	-3,768	327,545	163,250
67,276	-3,861	327,313	163,015
68,290	-3,656	327,082	163,115
69,305	-3,808	326,798	162,789
70,320	-3,839	326,665	162,674
71,334	-3,770	326,428	162,618
72,349	-3,786	326,038	162,391
73,363	-3,861	325,798	162,173
74,378	-3,751	325,487	162,128
75,393	-3,774	325,304	161,995
76,407	-3,772	325,029	161,846
77,422	-3,694	324,690	161,750
78,436	-3,646	324,394	161,641
79,451	-3,693	324,262	161,509
80,466	-3,745	324,006	161,310
81,480	-3,891	323,740	161,001
82,495	-3,725	323,333	160,968
83,509	-3,720	323,167	160,876
84,524	-3,684	323,064	160,851
85,539	-3,737	322,773	160,632
86,553	-3,633	322,483	160,589
87,568	-3,774	322,354	160,355
88,582	-3,606	321,982	160,341
89,597	-3,854	321,699	159,912
90,611	-3,755	321,593	159,955
91,626	-3,783	321,340	159,783
92,641	-3,646	321,171	159,835
93,655	-3,599	320,752	159,664
94,670	-3,665	320,741	159,573
95,684	-3,712	320,334	159,304
96,699	-3,651	320,100	159,240
97,714	-3,844	319,838	158,885
98,728	-3,777	319,822	158,936
99,743	-3,672	319,353	158,803
100,757	-3,663	319,157	158,702
101,772	-3,598	318,837	158,599
102,787	-3,794	318,734	158,320
103,801	-3,668	318,418	158,286
104,816	-3,696	318,244	158,156
105,830	-3,548	317,840	158,101
106,845	-3,628	317,902	158,031
107,860	-3,655	317,543	157,809
108,874	-3,767	317,320	157,563
109,889	-3,799	317,082	157,396
110,903	-3,644	316,869	157,444
111,918	-3,608	316,556	157,312
112,933	-3,674	316,407	157,153
113,947	-3,757	316,194	156,945
114,962	-3,566	315,907	156,994
115,976	-3,699	315,623	156,696
116,991	-3,834	315,538	156,494
118,006	-3,906	315,374	156,321
119,020	-3,737	315,185	156,395
120,035	-3,722	314,880	156,246
121,049	-3,680	314,652	156,164
122,064	-3,855	314,544	155,909
123,079	-3,765	314,329	155,885
124,093	-3,727	313,924	155,711
125,108	-3,706	313,816	155,666
126,122	-3,643	313,498	155,562
127,137	-3,680	313,363	155,441
128,151	-3,693	313,079	155,272
129,166	-3,639	312,908	155,231
130,181	-3,669	312,604	155,035
131,195	-3,712	312,356	154,852
132,210	-3,760	312,210	154,715
133,224	-3,639	311,921	154,687
134,239	-3,719	311,886	154,570
135,254	-3,735	311,587	154,392
136,268	-3,684	311,274	154,276
137,283	-3,780	311,020	154,036
138,297	-3,616	310,693	154,033
139,312	-3,627	310,509	153,917
140,327	-3,714	310,387	153,750
141,341	-3,552	310,145	153,788
142,356	-3,820	310,151	153,494
143,370	-3,540	309,697	153,551
144,385	-3,645	309,424	153,291
145,400	-3,517	309,148	153,276
146,414	-3,598	309,093	153,149
147,429	-3,744	308,938	152,906
148,443	-3,638	308,461	152,767
149,458	-3,807	308,524	152,607
150,473	-3,663	308,215	152,591
151,487	-3,595	307,947	152,516
152,502	-3,757	307,840	152,280
153,516	-3,532	307,389	152,279
154,531	-3,756	307,200	151,938
155,546	-3,729	307,141	151,923
156,560	-3,657	306,709	151,771
157,575	-3,667	306,739	151,762
158,589	-3,699	306,435	151,564
159,604	-3,566	306,071	151,509
160,619	-3,812	306,041	151,226
161,633	-3,488	305,806	151,433
162,648	-3,573	305,622	151,239
163,662	-3,506	305,367	151,170
164,677	-3,624	305,269	150,985
165,692	-3,613	304,968	150,834
166,706	-3,631	304,769	150,703
167,721	-3,492	304,534	150,718
168,735	-3,449	304,404	150,685
169,750	-3,686	304,292	150,371
170,764	-3,693	303,983	150,197
171,779	-3,558	303,933	150,299
172,794	-3,650	303,669	150,059
173,808	-3,614	303,461	149,981
174,823	-3,572	303,199	149,881
175,837	-3,613	302,986	149,721
176,852	-3,586	302,803	149,644
177,867	-3,631	302,688	149,528
178,881	-3,637	302,395	149,363
179,896	-3,644	302,239	149,266
180,910	-3,680	301,987	149,091
181,925	-3,623	301,646	148,968
182,940	-3,591	301,562	148,946
183,954	-3,670	301,252	148,699
184,969	-3,666	301,106	148,618
185,983	-3,539	301,011	148,687
186,998	-3,427	300,651	148,610
188,013	-3,515	300,538	148,452
189,027	-3,582	300,289	148,247
190,042	-3,391	300,000	148,285
191,056	-3,646	299,880	147,953
192,071	-3,465	299,676	148,023
193,086	-3,545	299,478	147,831
194,100	-3,527	299,231	147,715
195,115	-3,612	299,099	147,550
196,129	-3,515	298,809	147,492
197,144	-3,579	298,616	147,319
198,159	-3,488	298,250	147,217
199,173	-3,560	298,220	147,116
200,188	-3,518	297,900	146,988
201,202	-3,408	297,681	146,977
202,217	-3,600	297,581	146,722
203,232	-3,571	297,358	146,627
204,246	-3,535	297,156	146,551
205,261	-3,480	296,900	146,467
206,275	-3,514	296,814	146,377
207,290	-3,676	296,673	146,132
208,304	-3,602	296,541	146,128
209,319	-3,525	296,153	146,002
210,334	-3,574	295,955	145,842
211,348	-3,427	295,680	145,840
212,363	-3,550	295,613	145,671
213,377	-3,702	295,341	145,372
214,392	-3,506	295,259	145,515
215,407	-3,429	294,883	145,393
216,421	-3,533	294,733	145,202
217,436	-3,577	294,543	145,053
218,450	-3,494	294,276	144,990
219,465	-3,702	294,310	144,788
220,480	-3,770	294,085	144,597
221,494	-3,586	293,837	144,644
222,509	-3,651	293,711	144,504
223,523	-3,486	293,446	144,525
224,538	-3,410	293,340	144,535
225,553	-3,471	293,006	144,297
226,567	-3,438	292,865	144,248
227,582	-3,441	292,730	144,165
228,596	-3,428	292,522	144,063
229,611	-3,621	292,294	143,747
230,626	-3,546	292,070	143,699
231,640	-3,630	291,900	143,519
232,655	-3,519	291,733	143,534
233,669	-3,490	291,482	143,425
234,684	-3,638	291,307	143,182
235,699	-3,544	291,031	143,125
236,713	-3,547	290,919	143,055
237,728	-3,463	290,786	143,058
238,742	-3,550	290,614	142,876
239,757	-3,585	290,266	142,658
240,772	-3,554	290,125	142,606
241,786	-3,599	290,039	142,507
242,801	-3,493	289,807	142,484
243,815	-3,483	289,585	142,372
244,830	-3,487	289,455	142,291
245,844	-3,527	289,146	142,088
246,859	-3,482	288,975	142,035
247,874	-3,516	288,898	141,952
248,888	-3,672	288,679	141,680
249,903	-3,607	288,501	141,642
250,917	-3,474	288,143	141,583
251,932	-3,562	288,192	141,510
252,947	-3,648	288,087	141,361
253,961	-3,588	287,680	141,208
254,976	-3,159	287,506	141,525
255,990	-3,243	287,505	141,431
257,005	-2,697	287,686	142,037
258,020	-0,904	288,283	144,059
259,034	0,231	288,317	145,164
260,049	0,771	288,351	145,692
261,063	1,362	288,333	146,243
262,078	1,510	288,327	146,369
263,093	1,961	288,112	146,684
264,107	2,015	288,206	146,771
265,122	2,233	288,023	146,876
266,136	2,307	287,811	146,825
267,151	2,336	287,554	146,710
268,166	2,184	287,661	146,604
269,180	2,341	287,339	146,578
270,195	2,330	287,130	146,448
271,209	2,503	286,927	146,499
272,224	2,513	286,704	146,381
273,239	2,308	286,599	146,117
274,253	2,188	286,354	145,863
275,268	2,212	286,166	145,778
276,282	2,181	285,957	145,629
277,297	2,192	285,791	145,542
278,312	2,091	285,833	145,453
279,326	2,379	285,372	145,481
280,341	2,278	285,136	145,252
281,355	2,171	285,046	145,090
282,370	2,074	284,806	144,863
283,384	2,143	284,720	144,872
284,399	2,344	284,424	144,900
285,414	2,203	284,284	144,682
286,428	2,115	284,117	144,500
287,443	1,999	283,936	144,285
288,457	2,002	283,774	144,192
289,472	2,184	283,483	144,204
290,487	2,031	283,385	143,996
291,501	1,965	283,250	143,853
292,516	2,084	282,975	143,812
293,530	2,002	282,753	143,610
294,545	2,010	282,688	143,571
295,560	1,928	282,417	143,343
296,574	2,068	282,156	143,330
297,589	1,819	282,050	143,029
298,603	1,947	281,789	143,004
299,618	2,072	281,642	143,034
300,633	2,045	281,485	142,916
301,647	2,045	281,389	142,855
302,662	2,124	281,108	142,774
303,676	2,182	281,025	142,774
304,691	2,221	280,765	142,665
305,706	2,234	280,731	142,648
306,720	2,242	280,468	142,508
307,735	2,181	280,333	142,370
308,749	2,202	280,101	142,260
309,764	2,093	279,913	142,050
310,779	2,124	279,712	141,964
311,793	2,174	279,468	141,874
312,808	2,208	279,401	141,858
313,822	2,224	279,079	141,697
314,837	2,164	279,024	141,601
315,852	2,176	278,748	141,460
316,866	2,313	278,583	141,491
317,881	2,178	278,425	141,272
318,895	2,166	278,205	141,137
319,910	2,134	278,131	141,057
320,925	2,174	277,659	140,842
321,939	2,151	277,707	140,832
322,954	2,274	277,583	140,871
323,968	2,313	277,472	140,838
324,983	2,387	277,163	140,738
325,997	2,193	277,090	140,509
327,012	2,012	277,024	140,295
328,027	2,127	276,681	140,215
329,041	2,250	276,547	140,249
330,056	2,227	276,369	140,125
331,070	2,249	276,099	139,996
332,085	2,377	276,011	140,056
333,100	2,280	275,676	139,784
334,114	2,289	275,498	139,689
335,129	2,356	275,384	139,681
336,143	2,181	275,309	139,470
337,158	2,296	275,121	139,467
338,173	2,247	275,049	139,374
339,187	2,324	274,802	139,307
340,202	2,123	274,693	139,055
341,216	2,257	274,429	139,032
342,231	2,272	274,192	138,913
343,246	2,280	273,969	138,795
344,260	2,211	273,914	138,692
345,275	2,361	273,669	138,692
346,289	2,482	273,518	138,714
347,304	2,361	273,438	138,550
348,319	2,381	273,203	138,437
349,333	2,261	273,013	138,219
350,348	2,305	272,779	138,129
351,362	2,227	272,761	138,036
352,377	2,404	272,490	138,047
353,392	2,527	272,259	138,030
354,406	2,393	272,171	137,851
355,421	190,298	1348,519	1423,616
356,435	153,576	1479,753	1423,740
