DTS Sentinel unit serial number:	SN410029Multiplexer serial number:	ORYXHardware model number:	OX2-SRSoftware version number:	ORYX F/W v4,00 Oryx Data Collector v3.7.2.0data status	okinstallation	B4 Nyhavnadifferential loss correction	single-endedforward channel	channel 2reverse channel	N/Adate	2023/12/18time	16:10:13forward acquisition time	300,00reverse acquisition time	0,00gamma	499,1914k internal	0,3137k external	0,3137temperature offset calibration	1,0000default loss term (dB/km)	0,3820temperature slope calibration	1,0000multiplexer offset coefficient	1,0000multiplexer slope coefficient	1,0000fibre end	0,00T internal ref (°C)	19,19T ext. ref 1 (°C)	7,61T ext. ref 2 (°C)	7,74length (m)	temperature (°C)	Stokes	anti-Stokes-744,400	480,391	0,016	0,027
-743,385	-97,168	-0,178	-0,034
-742,371	409,722	0,056	-0,088
-741,356	-54,929	-0,211	0,070
-740,342	411,647	0,062	0,098
-739,327	-1,517	-0,269	0,140
-738,312	233,515	0,078	-0,096
-737,298	33,592	-0,302	-0,194
-736,283	41,110	0,156	-0,105
-735,269	24,892	-0,184	0,113
-734,254	92,920	-0,102	-0,086
-733,239	-124,185	-0,435	-0,050
-732,225	-0,001	0,141	-0,074
-731,210	139,351	0,046	0,045
-730,196	800,000	-0,027	-0,056
-729,181	-200,000	0,006	0,157
-728,167	226,441	0,086	-0,104
-727,152	685,382	-0,050	-0,097
-726,137	-30,910	-0,078	0,032
-725,123	-200,000	0,005	-0,090
-724,108	274,170	-0,090	-0,118
-723,094	-89,624	-0,063	-0,014
-722,079	359,573	0,036	-0,053
-721,064	226,705	-0,006	-0,008
-720,050	-17,575	-0,046	-0,021
-719,035	-200,000	-0,012	0,045
-718,021	-200,000	-0,005	-0,045
-717,006	11,171	-0,096	0,054
-715,991	800,000	-0,031	-0,069
-714,977	-39,792	-0,122	-0,047
-713,962	-23,631	-0,169	-0,075
-712,948	-60,913	0,034	-0,011
-711,933	800,000	-0,017	-0,048
-710,918	-189,495	0,018	-0,000
-709,904	800,000	-0,062	-0,152
-708,889	-92,434	0,014	-0,003
-707,875	-81,277	-0,041	0,010
-706,860	-93,394	0,044	-0,009
-705,845	110,135	0,066	-0,059
-704,831	-112,420	0,100	0,015
-703,816	-145,608	-0,194	0,013
-702,802	-40,432	0,124	-0,048
-701,787	86,679	-0,066	0,054
-700,772	-136,586	-0,067	-0,006
-699,758	530,575	0,026	0,045
-698,743	-50,025	0,199	-0,070
-697,729	-200,000	0,016	0,054
-696,714	-113,120	-0,019	0,003
-695,699	201,737	0,088	0,101
-694,685	-200,000	-0,009	-0,129
-693,670	140,197	-0,093	0,091
-692,656	301,162	0,047	-0,065
-691,641	-186,898	0,107	-0,001
-690,627	-44,106	0,031	0,011
-689,612	552,772	0,072	-0,128
-688,597	62,380	-0,018	-0,013
-687,583	-200,000	-0,004	-0,091
-686,568	-200,000	0,004	-0,166
-685,554	800,000	-0,029	0,083
-684,539	800,000	0,083	0,239
-683,524	72,840	0,027	-0,021
-682,510	-200,000	-0,031	0,134
-681,495	315,412	0,060	-0,084
-680,481	-180,017	-0,040	0,001
-679,466	-114,992	-0,151	0,021
-678,451	50,962	-0,064	0,045
-677,437	209,709	0,038	-0,044
-676,422	-34,210	0,114	0,046
-675,408	206,245	0,067	-0,078
-674,393	-200,000	0,006	-0,037
-673,378	74,699	0,036	-0,028
-672,364	-200,000	-0,017	0,106
-671,349	-49,275	-0,066	-0,023
-670,335	-200,000	-0,055	-0,238
-669,320	-72,453	0,152	0,041
-668,305	800,000	0,049	-0,106
-667,291	-134,117	0,170	0,015
-666,276	-75,495	-0,081	-0,021
-665,262	45,022	-0,100	-0,068
-664,247	-200,000	0,042	0,154
-663,232	800,000	0,010	0,031
-662,218	800,000	-0,022	0,048
-661,203	-200,000	-0,004	0,244
-660,189	271,339	-0,071	0,092
-659,174	389,309	-0,052	0,079
-658,159	78,643	-0,034	-0,027
-657,145	-61,707	-0,195	-0,060
-656,130	-56,730	0,122	-0,040
-655,116	56,219	-0,082	-0,059
-654,101	-28,767	0,094	0,040
-653,086	-71,548	-0,162	-0,045
-652,072	187,931	0,057	0,063
-651,057	121,610	-0,155	0,143
-650,043	-69,788	-0,067	-0,019
-649,028	94,958	0,115	-0,097
-648,014	800,000	0,032	-0,101
-646,999	-24,937	0,205	0,090
-645,984	-200,000	-0,010	0,120
-644,970	800,000	0,024	-0,070
-643,955	-200,000	0,002	0,044
-642,941	0,861	-0,092	0,049
-641,926	-200,000	0,011	-0,108
-640,911	70,218	0,048	-0,037
-639,897	81,686	0,065	0,052
-638,882	44,406	-0,066	-0,044
-637,868	290,445	-0,102	-0,137
-636,853	-144,950	-0,145	-0,010
-635,838	316,573	0,022	-0,030
-634,824	29,460	-0,065	0,041
-633,809	-127,387	-0,103	-0,011
-632,795	-18,273	-0,035	0,016
-631,780	-78,277	-0,064	0,016
-630,765	668,502	0,034	-0,064
-629,751	-200,000	-0,018	-0,125
-628,736	-200,000	-0,003	-0,096
-627,722	91,879	-0,140	-0,116
-626,707	190,833	0,026	0,029
-625,692	-138,299	-0,041	-0,003
-624,678	-86,036	0,136	-0,031
-623,663	800,000	0,064	-0,136
-622,649	240,858	-0,113	-0,139
-621,634	-200,000	-0,031	-0,103
-620,619	800,000	-0,042	-0,095
-619,605	93,597	0,050	-0,041
-618,590	800,000	0,024	0,077
-617,576	16,057	-0,091	0,053
-616,561	241,022	-0,059	-0,072
-615,546	-200,000	-0,048	-0,197
-614,532	-34,639	-0,044	0,018
-613,517	159,167	-0,115	-0,118
-612,503	215,440	-0,028	0,033
-611,488	-200,000	-0,031	0,192
-610,474	-96,001	0,039	-0,008
-609,459	-15,230	-0,079	0,037
-608,444	-8,981	-0,084	-0,041
-607,430	565,832	-0,055	-0,099
-606,415	-200,000	0,007	-0,054
-605,401	486,712	0,085	0,144
-604,386	-188,021	0,034	-0,000
-603,371	79,913	-0,036	-0,028
-602,357	-31,035	-0,129	-0,053
-601,342	95,295	-0,053	-0,045
-600,328	-36,989	0,010	-0,004
-599,313	-157,043	-0,163	0,007
-598,298	6,901	0,108	0,059
-597,284	-165,482	0,057	0,002
-596,269	249,089	-0,044	-0,055
-595,255	-200,000	0,020	0,087
-594,240	109,579	-0,125	0,111
-593,225	553,757	-0,100	-0,179
-592,211	310,666	-0,057	-0,079
-591,196	363,362	0,071	0,106
-590,182	-200,000	-0,041	0,136
-589,167	800,000	0,022	0,053
-588,152	-16,588	-0,110	-0,051
-587,138	321,218	-0,016	-0,022
-586,123	158,467	-0,104	-0,106
-585,109	-4,358	-0,022	-0,011
-584,094	149,337	-0,062	-0,062
-583,079	-42,358	0,085	-0,032
-582,065	-140,898	-0,033	0,002
-581,050	66,081	0,097	0,073
-580,036	-200,000	0,011	-0,152
-579,021	85,303	-0,076	-0,061
-578,006	69,899	-0,037	-0,028
-576,992	-200,000	0,007	0,082
-575,977	-129,105	0,056	-0,006
-574,963	96,538	0,088	0,074
-573,948	-169,955	-0,009	0,000
-572,934	-125,579	-0,153	0,017
-571,919	-109,398	-0,057	0,009
-570,904	178,079	0,014	0,015
-569,890	800,000	0,037	0,089
-568,875	221,479	-0,099	0,118
-567,861	-137,121	0,104	0,009
-566,846	-107,423	0,119	0,019
-565,831	-55,894	-0,117	-0,038
-564,817	-180,864	-0,099	-0,001
-563,802	800,000	0,022	0,049
-562,788	272,333	-0,037	0,048
-561,773	249,569	0,024	-0,030
-560,758	476,233	0,022	0,037
-559,744	234,628	-0,016	-0,019
-558,729	5,754	0,068	0,037
-557,715	-97,654	-0,041	0,008
-556,700	67,030	-0,059	0,044
-555,685	10,676	0,032	-0,018
-554,671	-78,748	0,154	-0,038
-553,656	800,000	0,029	0,083
-552,642	97,031	0,049	0,041
-551,627	-200,000	0,014	0,111
-550,612	-21,189	-0,060	-0,027
-549,598	-200,000	0,008	0,062
-548,583	-200,000	-0,017	-0,123
-547,569	-200,000	0,013	-0,058
-546,554	-185,634	0,183	-0,002
-545,539	450,528	0,106	-0,173
-544,525	-200,000	-0,006	0,032
-543,510	-200,000	-0,041	-0,217
-542,496	64,087	-0,039	-0,029
-541,481	-141,210	-0,047	0,003
-540,466	-200,000	-0,008	-0,037
-539,452	162,999	-0,194	0,201
-538,437	800,000	0,047	0,126
-537,423	800,000	0,026	-0,056
-536,408	-137,080	-0,123	0,010
-535,393	89,995	-0,089	0,074
-534,379	-107,830	0,112	0,018
-533,364	-200,000	0,003	0,067
-532,350	183,814	0,043	-0,047
-531,335	33,497	0,084	0,053
-530,321	346,545	0,056	0,081
-529,306	-200,000	-0,011	-0,104
-528,291	117,852	-0,047	-0,043
-527,277	462,271	0,038	0,063
-526,262	800,000	0,020	0,049
-525,248	-26,359	-0,061	0,026
-524,233	-21,343	-0,155	0,069
-523,218	-200,000	0,021	0,084
-522,204	398,386	0,029	-0,045
-521,189	-134,399	-0,101	-0,009
-520,175	136,737	0,073	-0,070
-519,160	-87,794	0,109	0,024
-518,145	87,852	0,150	0,123
-517,131	-83,940	0,148	0,034
-516,116	367,978	-0,037	-0,054
-515,102	-97,904	-0,127	-0,024
-514,087	214,200	-0,038	0,044
-513,072	-16,601	0,031	-0,014
-512,058	-200,000	-0,006	-0,092
-511,043	216,107	-0,065	0,076
-510,029	417,341	0,031	0,049
-509,014	293,264	-0,043	-0,057
-507,999	-200,000	0,020	-0,077
-506,985	-24,867	0,029	-0,012
-505,970	96,072	0,070	-0,058
-504,956	-200,000	-0,026	-0,106
-503,941	-3,911	0,066	-0,034
-502,926	800,000	-0,023	0,071
-501,912	-200,000	-0,031	-0,130
-500,897	-0,321	-0,051	0,026
-499,883	452,799	-0,070	-0,115
-498,868	274,151	0,015	0,020
-497,853	800,000	0,044	-0,100
-496,839	800,000	-0,042	-0,093
-495,824	86,205	0,101	0,082
-494,810	16,278	-0,050	0,029
-493,795	-200,000	-0,038	-0,229
-492,781	347,282	-0,116	-0,168
-491,766	389,036	0,083	-0,127
-490,751	-69,305	0,106	0,030
-489,737	-65,875	0,092	-0,027
-488,722	10,247	-0,082	0,045
-487,708	168,976	0,058	0,060
-486,693	-200,000	-0,004	0,045
-485,678	10,299	-0,065	0,036
-484,664	-69,591	0,024	-0,007
-483,649	-200,000	-0,004	-0,059
-482,635	-200,000	0,022	-0,091
-481,620	-200,000	-0,019	0,084
-480,605	120,442	-0,052	-0,048
-479,591	-33,017	0,099	-0,040
-478,576	800,000	-0,013	0,028
-477,562	247,711	0,065	-0,081
-476,547	212,488	-0,116	-0,134
-475,532	650,400	-0,034	0,064
-474,518	161,511	-0,036	-0,037
-473,503	-110,536	-0,035	-0,005
-472,489	446,667	0,038	-0,061
-471,474	713,461	-0,062	-0,122
-470,459	-200,000	-0,008	-0,067
-469,445	-0,139	0,034	-0,018
-468,430	-51,785	-0,064	0,022
-467,416	25,486	-0,035	-0,021
-466,401	3,679	-0,029	-0,016
-465,386	-181,842	0,100	0,001
-464,372	205,349	-0,085	0,097
-463,357	-200,000	0,021	0,091
-462,343	-149,112	-0,192	-0,011
-461,328	-200,000	0,015	-0,059
-460,313	-158,098	-0,084	0,004
-459,299	-117,149	-0,047	-0,006
-458,284	800,000	-0,031	0,090
-457,270	-181,423	0,028	0,000
-456,255	116,007	0,059	0,053
-455,241	-111,219	0,065	0,010
-454,226	8,565	-0,154	0,085
-453,211	132,869	-0,059	0,056
-452,197	-2,837	0,072	0,037
-451,182	800,000	-0,060	0,171
-450,168	794,501	0,015	-0,031
-449,153	800,000	0,023	-0,050
-448,138	-73,789	-0,133	0,035
-447,124	228,827	0,033	-0,039
-446,109	-168,881	0,104	0,003
-445,095	297,034	-0,074	-0,100
-444,080	782,997	0,059	-0,119
-443,065	800,000	-0,045	-0,116
-442,051	709,171	-0,077	0,150
-441,036	699,620	-0,021	0,041
-440,022	-200,000	-0,034	-0,112
-439,007	137,673	0,085	-0,082
-437,992	800,000	0,078	0,176
-436,978	75,718	-0,060	0,047
-435,963	198,835	-0,025	-0,028
-434,949	-50,210	-0,009	-0,003
-433,934	312,917	0,033	0,045
-432,919	800,000	0,007	0,015
-431,905	9,230	0,050	0,028
-430,890	-26,783	-0,053	-0,023
-429,876	-67,215	0,115	-0,033
-428,861	-112,232	0,029	-0,004
-427,846	283,023	0,024	0,032
-426,832	-200,000	-0,009	-0,172
-425,817	800,000	-0,015	-0,039
-424,803	29,717	-0,037	-0,023
-423,788	-112,057	0,116	-0,017
-422,773	-200,000	-0,031	0,112
-421,759	-56,167	0,042	-0,013
-420,744	133,233	-0,122	0,116
-419,730	-74,789	0,018	-0,005
-418,715	800,000	0,063	-0,180
-417,701	-200,000	0,017	0,105
-416,686	634,237	0,037	0,069
-415,671	800,000	0,008	0,018
-414,657	155,422	0,047	0,048
-413,642	800,000	-0,027	0,055
-412,628	-140,978	-0,110	0,008
-411,613	336,006	-0,063	-0,089
-410,598	-200,000	0,019	-0,095
-409,584	364,924	-0,114	0,169
-408,569	-200,000	0,015	0,165
-407,555	-200,000	-0,008	0,040
-406,540	-138,074	-0,142	-0,011
-405,525	96,466	-0,155	-0,130
-404,511	-200,000	0,011	-0,093
-403,496	-200,000	-0,004	-0,020
-402,482	-74,915	-0,044	-0,011
-401,467	800,000	-0,016	-0,041
-400,452	-200,000	-0,017	0,147
-399,438	94,768	0,026	-0,022
-398,423	238,973	0,030	-0,036
-397,409	-7,854	-0,097	-0,048
-396,394	-200,000	0,000	-0,040
-395,379	166,377	0,041	-0,043
-394,365	-175,399	0,092	0,002
-393,350	174,587	0,084	0,089
-392,336	168,571	0,031	-0,033
-391,321	94,692	-0,049	-0,041
-390,306	-200,000	-0,007	0,136
-389,292	800,000	-0,033	-0,085
-388,277	42,797	-0,026	0,018
-387,263	558,633	0,107	0,190
-386,248	800,000	0,024	0,063
-385,233	51,388	0,057	0,040
-384,219	-200,000	-0,002	0,155
-383,204	-14,558	0,011	-0,005
-382,190	-27,396	0,017	-0,007
-381,175	479,704	-0,075	0,124
-380,160	-123,390	0,128	0,015
-379,146	-136,630	0,294	0,025
-378,131	-181,489	0,181	-0,003
-377,117	-14,325	-0,105	0,049
-376,102	-10,478	0,097	-0,047
-375,088	149,709	0,071	0,070
-374,073	-200,000	-0,024	0,096
-373,058	268,184	-0,084	0,108
-372,044	-200,000	0,022	0,083
-371,029	45,933	-0,098	0,066
-370,015	100,756	-0,108	-0,092
-369,000	-200,000	-0,004	-0,021
-367,985	-118,314	-0,088	0,011
-366,971	-200,000	0,001	-0,087
-365,956	-200,000	0,043	0,160
-364,942	794,833	-0,065	-0,132
-363,927	-73,081	0,109	-0,029
-362,912	-200,000	-0,007	0,052
-361,898	800,000	0,007	-0,020
-360,883	-200,000	0,020	0,081
-359,869	314,394	-0,105	-0,145
-358,854	123,123	0,098	-0,090
-357,839	-200,000	0,007	0,164
-356,825	-200,000	0,023	0,093
-355,810	14,746	-0,069	0,039
-354,796	628,098	-0,080	-0,149
-353,781	170,852	-0,083	-0,087
-352,766	163,738	0,072	-0,074
-351,752	182,030	0,068	0,073
-350,737	-20,793	0,057	0,025
-349,723	-200,000	0,003	0,018
-348,708	-53,299	0,089	-0,030
-347,693	-200,000	-0,032	-0,107
-346,679	-126,962	0,036	0,004
-345,664	57,186	-0,106	0,076
-344,650	23,330	0,031	-0,019
-343,635	-11,140	0,135	0,065
-342,620	95,841	0,050	0,042
-341,606	-151,339	0,076	0,004
-340,591	-200,000	0,018	-0,122
-339,577	-89,267	-0,121	0,026
-338,562	-200,000	0,009	0,048
-337,548	184,841	-0,039	0,042
-336,533	311,302	0,007	-0,009
-335,518	-18,367	0,086	0,039
-334,504	-200,000	0,030	0,102
-333,489	-200,000	0,025	-0,131
-332,475	-200,000	0,007	-0,074
-331,460	-43,152	-0,079	0,029
-330,445	-98,885	-0,046	-0,009
-329,431	800,000	0,046	0,109
-328,416	21,050	0,096	0,057
-327,402	9,381	0,087	0,048
-326,387	478,911	0,036	0,060
-325,372	-200,000	0,012	-0,178
-324,358	800,000	-0,012	-0,028
-323,343	-192,960	-0,074	-0,000
-322,329	-45,911	0,126	-0,045
-321,314	800,000	0,035	-0,086
-320,299	-200,000	-0,006	0,107
-319,285	40,323	-0,070	0,046
-318,270	-88,042	-0,091	0,020
-317,256	-155,663	-0,104	-0,005
-316,241	-200,000	-0,012	0,079
-315,226	-200,000	0,028	0,184
-314,212	199,413	0,036	0,040
-313,197	708,188	0,032	-0,063
-312,183	-48,024	-0,055	0,019
-311,168	98,755	-0,119	-0,100
-310,153	614,896	-0,023	-0,041
-309,139	28,806	-0,035	0,022
-308,124	182,889	0,067	-0,072
-307,110	368,901	0,086	0,127
-306,095	20,619	0,085	0,050
-305,080	-200,000	-0,005	0,118
-304,066	172,124	-0,084	0,088
-303,051	800,000	0,009	-0,025
-302,037	-162,144	-0,114	-0,004
-301,022	129,461	-0,019	0,017
-300,008	-200,000	-0,000	-0,045
-298,993	0,387	0,101	0,052
-297,978	-200,000	-0,016	-0,127
-296,964	-127,135	-0,038	0,004
-295,949	37,867	0,070	-0,046
-294,935	248,431	0,058	-0,072
-293,920	-200,000	-0,004	-0,035
-292,905	8,974	0,093	0,051
-291,891	800,000	-0,099	0,214
-290,876	800,000	0,009	-0,019
-289,862	-200,000	-0,005	-0,056
-288,847	375,063	0,077	-0,115
-287,832	204,840	0,092	-0,104
-286,818	197,078	-0,046	0,051
-285,803	-200,000	-0,030	0,119
-284,789	-200,000	0,013	-0,078
-283,774	800,000	0,043	-0,099
-282,759	679,491	-0,049	0,094
-281,745	800,000	-0,024	-0,072
-280,730	-160,766	0,139	0,005
-279,716	-32,273	0,019	0,008
-278,701	-16,506	0,068	0,031
-277,686	-125,804	0,069	-0,007
-276,672	800,000	0,014	0,041
-275,657	-200,000	-0,011	0,064
-274,643	258,752	0,052	0,066
-273,628	111,401	0,018	0,016
-272,613	-16,106	0,021	0,010
-271,599	-200,000	0,012	0,061
-270,584	79,676	-0,096	0,075
-269,570	-86,579	0,119	0,026
-268,555	-160,594	-0,095	-0,004
-267,540	800,000	0,029	-0,067
-266,526	460,668	-0,059	-0,097
-265,511	16,117	0,125	-0,072
-264,497	800,000	-0,026	0,080
-263,482	529,520	0,050	0,086
-262,467	98,421	0,050	0,042
-261,453	430,342	0,057	-0,091
-260,438	-64,358	-0,085	0,025
-259,424	119,088	-0,037	0,034
-258,409	800,000	-0,037	-0,119
-257,395	95,643	0,078	0,065
-256,380	800,000	0,108	0,219
-255,365	-200,000	-0,015	0,098
-254,351	221,895	0,059	0,069
-253,336	-85,860	-0,081	-0,018
-252,322	-200,000	-0,012	-0,120
-251,307	678,578	0,064	-0,121
-250,292	-200,000	-0,010	0,077
-249,278	-26,590	0,046	-0,020
-248,263	-61,520	0,074	-0,022
-247,249	-25,718	0,145	-0,062
-246,234	215,479	0,071	-0,083
-245,219	800,000	0,032	0,069
-244,205	-200,000	-0,018	0,064
-243,190	-41,623	0,013	0,005
-242,176	-200,000	0,036	-0,126
-241,161	-140,715	0,092	-0,007
-240,146	-200,000	0,007	0,085
-239,132	72,589	0,081	-0,061
-238,117	370,999	-0,044	-0,065
-237,103	-200,000	0,006	0,032
-236,088	390,747	0,024	0,036
-235,073	247,330	0,063	0,078
-234,059	163,875	0,055	-0,057
-233,044	616,945	-0,040	0,074
-232,030	-48,572	-0,094	-0,033
-231,015	-200,000	0,023	-0,164
-230,000	-200,000	-0,011	-0,140
-228,986	-153,007	-0,064	-0,003
-227,971	77,415	0,124	0,096
-226,957	-200,000	0,036	0,118
-225,942	-200,000	0,004	0,077
-224,927	-60,185	-0,001	-0,000
-223,913	125,148	0,050	-0,046
-222,898	800,000	0,028	-0,056
-221,884	-120,798	-0,108	-0,013
-220,869	137,953	-0,045	-0,043
-219,855	-200,000	0,005	-0,026
-218,840	30,678	-0,081	0,050
-217,825	58,659	-0,038	-0,027
-216,811	-200,000	0,015	-0,056
-215,796	-200,000	-0,003	0,035
-214,782	170,563	-0,079	0,082
-213,767	6,030	0,073	0,039
-212,752	-200,000	-0,022	0,158
-211,738	649,608	0,042	0,079
-210,723	747,382	0,039	0,077
-209,709	-50,420	-0,049	-0,017
-208,694	194,382	0,031	-0,034
-207,679	149,980	0,103	-0,102
-206,665	-14,391	-0,125	-0,058
-205,650	712,362	-0,068	0,131
-204,636	261,944	0,057	-0,073
-203,621	455,606	-0,033	0,054
-202,606	-175,506	0,117	-0,002
-201,592	218,564	-0,041	-0,048
-200,577	-79,108	0,069	0,017
-199,563	-200,000	0,012	0,054
-198,548	641,077	0,070	0,131
-197,533	-200,000	-0,006	0,125
-196,519	-110,385	0,098	0,015
-195,504	62,965	-0,017	-0,012
-194,490	688,369	0,041	0,078
-193,475	406,862	-0,045	-0,070
-192,460	-100,118	-0,122	-0,022
-191,446	-92,024	0,065	-0,013
-190,431	-58,521	-0,072	0,023
-189,417	96,035	-0,018	0,015
-188,402	-87,600	0,109	-0,024
-187,387	-88,753	0,097	-0,021
-186,373	39,898	0,026	0,017
-185,358	55,962	0,058	0,040
-184,344	-200,000	0,046	0,149
-183,329	-200,000	0,003	0,154
-182,315	-124,909	-0,061	-0,007
-181,300	-138,895	-0,080	-0,006
-180,285	-108,659	0,089	0,014
-179,271	79,039	0,044	-0,034
-178,256	800,000	-0,032	-0,098
-177,242	197,925	-0,071	-0,079
-176,227	161,801	-0,123	-0,125
-175,212	367,012	-0,025	-0,037
-174,198	87,909	-0,081	0,065
-173,183	-200,000	0,000	0,047
-172,169	800,000	-0,019	-0,059
-171,154	-85,005	0,018	-0,004
-170,139	279,503	0,068	0,089
-169,125	-107,372	-0,068	0,011
-168,110	-56,352	-0,073	0,023
-167,096	194,822	0,065	0,072
-166,081	715,128	0,067	-0,130
-165,066	106,160	-0,144	-0,124
-164,052	-200,000	0,004	0,015
-163,037	-87,774	-0,126	0,027
-162,023	-200,000	0,012	-0,096
-161,008	800,000	0,009	-0,021
-159,993	-200,000	-0,021	0,116
-158,979	283,239	-0,083	-0,109
-157,964	48,923	0,050	-0,034
-156,950	-20,010	0,191	0,085
-155,935	-200,000	-0,014	-0,109
-154,920	61,363	-0,097	0,070
-153,906	-104,347	0,125	0,021
-152,891	-200,000	-0,023	-0,103
-151,877	-200,000	0,019	-0,127
-150,862	800,000	-0,098	-0,235
-149,847	-13,650	-0,073	-0,034
-148,833	-75,956	0,111	0,028
-147,818	351,250	-0,033	-0,047
-146,804	-0,459	0,081	0,041
-145,789	560,679	0,042	-0,074
-144,775	319,271	0,066	-0,092
-143,760	-200,000	-0,004	0,065
-142,745	-168,623	-0,110	-0,003
-141,731	7,486	0,082	-0,044
-140,716	47,013	-0,075	0,051
-139,702	179,593	0,072	0,077
-138,687	800,000	0,030	0,086
-137,672	110,977	-0,018	0,016
-136,658	85,269	-0,042	0,033
-135,643	410,984	0,028	-0,043
-134,629	152,666	-0,020	0,020
-133,614	-200,000	0,017	0,073
-132,599	-200,000	0,014	0,067
-131,585	800,000	0,048	0,143
-130,570	135,902	0,043	-0,041
-129,556	300,055	-0,082	-0,110
-128,541	-200,000	0,035	-0,130
-127,526	-90,146	-0,090	0,019
-126,512	-17,250	0,064	-0,029
-125,497	-179,521	0,083	-0,001
-124,483	164,564	0,073	0,074
-123,468	146,768	-0,044	0,043
-122,453	140,367	-0,083	0,080
-121,439	335,765	0,042	-0,059
-120,424	-200,000	0,028	-0,107
-119,410	-124,759	0,047	0,005
-118,395	-200,000	-0,007	0,098
-117,380	-200,000	-0,011	-0,064
-116,366	170,722	0,033	-0,034
-115,351	15,742	-0,064	-0,036
-114,337	-200,000	-0,043	0,194
-113,322	800,000	0,039	0,096
-112,307	800,000	0,016	0,044
-111,293	-200,000	-0,021	0,139
-110,278	-200,000	0,027	0,182
-109,264	-126,187	-0,123	-0,013
-108,249	127,264	-0,057	0,052
-107,234	-94,402	-0,218	-0,043
-106,220	-200,000	0,001	-0,151
-105,205	-200,000	-0,007	-0,180
-104,191	224,094	0,037	-0,043
-103,176	-200,000	-0,034	0,150
-102,162	-200,000	0,002	0,087
-101,147	-113,805	-0,069	-0,010
-100,132	-130,301	-0,112	0,011
-99,118	349,764	0,044	0,063
-98,103	-200,000	-0,189	0,000
-97,089	-200,000	0,033	-0,116
-96,074	59,740	0,048	0,034
-95,059	-200,000	0,004	0,054
-94,045	-100,301	-0,171	0,030
-93,030	-200,000	0,004	0,102
-92,016	475,882	-0,020	-0,033
-91,001	800,000	0,059	0,130
-89,986	-20,274	0,112	-0,050
-88,972	-7,126	0,149	0,073
-87,957	300,294	0,090	-0,120
-86,943	800,000	-0,025	0,052
-85,928	142,165	-0,067	-0,065
-84,913	51,740	0,079	0,054
-83,899	349,676	0,079	0,113
-82,884	337,932	0,054	0,076
-81,870	-200,000	-0,014	0,047
-80,855	-31,771	0,056	0,023
-79,840	800,000	-0,022	0,059
-78,826	-200,000	0,006	0,065
-77,811	-87,139	-0,168	-0,037
-76,797	-200,000	-0,012	0,058
-75,782	229,830	-0,033	0,039
-74,767	13,229	0,175	-0,098
-73,753	298,449	-0,030	0,039
-72,738	628,963	0,056	0,103
-71,724	32,413	-0,058	0,036
-70,709	800,000	0,063	-0,129
-69,694	37,065	-0,085	0,054
-68,680	-109,577	-0,142	0,021
-67,665	-110,658	0,171	-0,025
-66,651	-200,000	0,020	0,092
-65,636	-200,000	0,001	-0,013
-64,622	-75,749	-0,074	-0,019
-63,607	285,231	0,020	0,026
-62,592	630,335	-0,086	-0,159
-61,578	285,566	0,018	0,023
-60,563	80,253	0,057	-0,044
-59,549	88,168	0,064	0,051
-58,534	-67,405	-1,477	-0,416
-57,519	800,000	-0,690	-1,437
-56,505	-200,000	-0,850	-4,633
-55,490	-127,244	0,722	-0,075
-54,476	800,000	5,033	11,922
-53,461	-200,000	15,287	264,794
-52,446	-200,000	701,645	2244,711
-51,432	583,818	1622,919	2890,264
-50,417	117,415	1626,711	1444,877
-49,403	76,799	1281,079	980,969
-48,388	35,803	1020,680	646,765
-47,373	21,735	981,109	575,548
-46,359	20,898	970,100	566,329
-45,344	19,437	965,890	559,091
-44,330	19,510	964,286	558,378
-43,315	19,285	962,930	556,840
-42,300	19,272	961,818	556,131
-41,286	19,233	960,944	555,479
-40,271	19,221	959,981	554,862
-39,257	19,269	959,120	554,495
-38,242	19,181	958,175	553,645
-37,227	19,236	957,463	553,389
-36,213	19,240	956,661	552,916
-35,198	19,209	955,607	552,185
-34,184	19,319	954,788	552,042
-33,169	19,190	954,019	551,160
-32,154	19,260	953,195	550,889
-31,140	19,244	952,229	550,257
-30,125	19,243	951,530	549,828
-29,111	19,282	950,441	549,301
-28,096	19,219	949,990	548,817
-27,082	19,162	949,444	548,298
-26,067	19,202	948,558	547,892
-25,052	19,243	947,758	547,539
-24,038	19,152	947,224	546,919
-23,023	19,201	946,528	546,650
-22,009	19,243	945,771	546,325
-20,994	19,230	945,334	546,013
-19,979	19,190	944,671	545,478
-18,965	19,241	944,015	545,241
-17,950	19,234	943,446	544,868
-16,936	19,086	942,881	544,051
-15,921	19,170	942,175	543,888
-14,906	19,132	941,151	543,154
-13,892	19,114	940,588	542,750
-12,877	19,098	939,983	542,329
-11,863	19,035	939,412	541,779
-10,848	19,063	939,047	541,637
-9,833	19,192	938,475	541,692
-8,819	19,171	937,911	541,278
-7,804	19,148	937,164	540,755
-6,790	19,152	936,538	540,384
-5,775	19,180	936,022	540,152
-4,760	19,165	935,474	539,768
-3,746	19,126	934,971	539,332
-2,731	18,945	934,053	538,213
-1,717	18,908	933,511	537,762
-0,702	18,943	932,801	537,444
0,313	18,766	932,160	537,328
1,327	21,419	930,264	544,508
2,342	29,306	807,102	493,719
3,356	24,831	510,844	304,815
4,371	2,574	378,670	197,352
5,386	-0,038	362,066	185,443
6,400	-0,713	356,244	181,620
7,415	-0,686	353,766	180,374
8,429	-0,794	352,464	179,563
9,444	-0,667	351,474	179,195
10,459	-0,460	350,766	179,067
11,473	-0,600	350,191	178,591
12,488	-0,546	349,640	178,357
13,502	-0,783	349,132	177,799
14,517	-0,667	348,642	177,673
15,531	-0,481	348,118	177,612
16,546	-0,415	347,759	177,492
17,561	-0,331	347,334	177,358
18,575	-0,271	346,947	177,216
19,590	-0,285	346,481	176,945
20,604	-0,336	346,212	176,732
21,619	-0,400	345,796	176,428
22,634	-0,394	345,503	176,271
23,648	-0,376	345,219	176,131
24,663	-0,276	344,829	176,034
25,677	-0,306	344,467	175,798
26,692	-0,279	344,115	175,635
27,707	-0,475	343,918	175,288
28,721	-0,374	343,524	175,190
29,736	-0,405	343,299	175,023
30,750	-0,179	342,900	175,069
31,765	-0,272	342,655	174,819
32,780	-0,220	342,448	174,760
33,794	-0,400	342,297	174,456
34,809	-0,174	341,728	174,414
35,823	-0,209	341,408	174,195
36,838	-0,476	341,459	173,893
37,853	-0,340	341,023	173,814
38,867	-0,283	340,708	173,705
39,882	-0,396	340,415	173,409
40,896	-0,211	340,007	173,400
41,911	-0,258	339,722	173,184
42,926	-0,336	339,574	173,004
43,940	-0,415	339,337	172,776
44,955	-0,255	338,971	172,759
45,969	-0,412	338,836	172,493
46,984	-0,251	338,591	172,539
47,999	-0,262	338,385	172,407
49,013	-0,299	338,032	172,169
50,028	-0,602	337,799	171,685
51,042	-0,494	337,379	171,581
52,057	-0,485	337,219	171,494
53,071	-0,338	336,776	171,423
54,086	-0,421	336,756	171,302
55,101	-0,410	336,405	171,120
56,115	-0,306	336,258	171,150
57,130	-0,235	335,892	171,030
58,144	-0,399	335,628	170,692
59,159	-0,389	335,321	170,532
60,174	-0,314	335,080	170,480
61,188	-0,372	334,816	170,265
62,203	-0,455	334,488	169,987
63,217	-0,291	334,234	170,030
64,232	-0,281	333,995	169,906
65,247	-0,422	333,783	169,621
66,261	-0,342	333,454	169,531
67,276	-0,278	333,328	169,524
68,290	-0,383	332,961	169,202
69,305	-0,307	332,673	169,127
70,320	-0,249	332,412	169,046
71,334	-0,244	332,351	169,005
72,349	-0,256	331,918	168,757
73,363	-0,453	331,676	168,396
74,378	-0,357	331,472	168,386
75,393	-0,348	331,206	168,246
76,407	-0,431	331,011	168,038
77,422	-0,434	330,866	167,946
78,436	-0,311	330,509	167,888
79,451	-0,384	330,366	167,718
80,466	-0,509	329,955	167,354
81,480	-0,427	329,794	167,349
82,495	-0,383	329,515	167,243
83,509	-0,209	329,294	167,312
84,524	-0,252	329,080	167,139
85,539	-0,357	328,843	166,887
86,553	-0,242	328,586	166,870
87,568	-0,474	328,312	166,456
88,582	-0,336	328,165	166,520
89,597	-0,343	327,823	166,325
90,611	-0,240	327,441	166,231
91,626	-0,296	327,365	166,116
92,641	-0,345	327,211	165,968
93,655	-0,362	326,846	165,749
94,670	-0,218	326,661	165,800
95,684	-0,214	326,415	165,665
96,699	-0,434	326,142	165,268
97,714	-0,434	326,002	165,182
98,728	-0,124	325,648	165,331
99,743	-0,377	325,516	164,969
100,757	-0,382	325,310	164,845
101,772	-0,420	324,955	164,609
102,787	-0,229	324,774	164,712
103,801	-0,391	324,354	164,306
104,816	-0,188	324,225	164,450
105,830	-0,402	324,071	164,122
106,845	-0,282	323,871	164,138
107,860	-0,311	323,599	163,954
108,874	-0,366	323,482	163,819
109,889	-0,372	323,125	163,617
110,903	-0,357	322,933	163,521
111,918	-0,405	322,610	163,291
112,933	-0,258	322,337	163,299
113,947	-0,335	322,299	163,181
114,962	-0,133	322,046	163,259
115,976	-0,331	321,846	162,927
116,991	-0,494	321,592	162,606
118,006	-0,433	321,370	162,546
119,020	-0,283	321,152	162,585
120,035	-0,361	320,893	162,354
121,049	-0,418	320,879	162,270
122,064	-0,237	320,538	162,280
123,079	-0,382	320,316	161,996
124,093	-0,271	319,987	161,935
125,108	-0,244	319,790	161,850
126,122	-0,464	319,598	161,500
127,137	-0,410	319,274	161,381
128,151	-0,409	319,110	161,285
129,166	-0,292	318,994	161,338
130,181	-0,251	318,640	161,189
131,195	-0,324	318,374	160,962
132,210	-0,339	318,130	160,807
133,224	-0,317	317,939	160,720
134,239	-0,266	317,713	160,646
135,254	-0,343	317,565	160,474
136,268	-0,233	317,171	160,379
137,283	-0,307	316,977	160,187
138,297	-0,261	316,814	160,140
139,312	-0,468	316,525	159,758
140,327	-0,283	316,380	159,869
141,341	-0,230	316,115	159,777
142,356	-0,282	315,864	159,581
143,370	-0,385	315,683	159,364
144,385	-0,483	315,627	159,218
145,400	-0,311	315,287	159,215
146,414	-0,155	314,813	159,128
147,429	-0,270	314,814	158,992
148,443	-0,202	314,522	158,902
149,458	-0,181	314,381	158,839
150,473	-0,342	314,253	158,590
151,487	-0,311	313,963	158,461
152,502	-0,260	313,830	158,435
153,516	-0,296	313,483	158,207
154,531	-0,316	313,253	158,056
155,546	-0,243	313,039	158,011
156,560	-0,188	313,027	158,049
157,575	-0,322	312,806	157,782
158,589	-0,170	312,458	157,753
159,604	-0,144	312,071	157,571
160,619	-0,372	312,125	157,344
161,633	-0,301	311,923	157,303
162,648	-0,310	311,626	157,129
163,662	-0,220	311,376	157,084
164,677	-0,274	311,216	156,932
165,692	-0,103	310,904	156,941
166,706	-0,170	310,696	156,751
167,721	-0,336	310,667	156,548
168,735	-0,220	310,380	156,511
169,750	-0,360	310,131	156,226
170,764	-0,242	309,925	156,232
171,779	-0,404	309,953	156,061
172,794	-0,281	309,701	156,050
173,808	-0,195	309,349	155,948
174,823	-0,230	309,044	155,744
175,837	-0,350	309,038	155,602
176,852	-0,288	308,740	155,503
177,867	-0,269	308,481	155,378
178,881	-0,214	308,256	155,308
179,896	-0,196	308,116	155,242
180,910	-0,262	308,058	155,131
181,925	-0,259	307,629	154,904
182,940	-0,198	307,491	154,884
183,954	-0,155	307,381	154,859
184,969	-0,227	307,189	154,674
185,983	-0,196	306,989	154,592
186,998	-0,226	306,698	154,401
188,013	-0,152	306,469	154,347
189,027	-0,085	306,147	154,240
190,042	-0,278	306,035	153,972
191,056	-0,245	305,880	153,914
192,071	-0,415	305,741	153,655
193,086	-0,213	305,317	153,636
194,100	-0,373	305,271	153,435
195,115	-0,216	305,019	153,456
196,129	-0,128	304,706	153,375
197,144	-0,365	304,438	152,983
198,159	-0,293	304,360	153,004
199,173	-0,139	304,012	152,973
200,188	-0,487	303,935	152,565
201,202	-0,321	303,708	152,607
202,217	-0,354	303,637	152,524
203,232	-0,218	303,300	152,480
204,246	-0,326	303,165	152,288
205,261	-0,341	302,803	152,077
206,275	-0,277	302,635	152,045
207,290	-0,400	302,553	151,865
208,304	-0,071	302,304	152,062
209,319	-0,232	302,137	151,800
210,334	-0,483	302,016	151,471
211,348	-0,226	301,712	151,565
212,363	-0,216	301,417	151,413
213,377	-0,145	301,241	151,383
214,392	-0,155	301,160	151,320
215,407	-0,250	300,823	151,040
216,421	-0,237	300,795	151,026
217,436	-0,302	300,508	150,802
218,450	-0,295	300,314	150,698
219,465	-0,279	300,239	150,664
220,480	-0,198	299,991	150,608
221,494	-0,250	299,784	150,438
222,509	-0,281	299,562	150,283
223,523	-0,227	299,451	150,267
224,538	-0,384	299,102	149,921
225,553	-0,217	298,861	149,955
226,567	-0,227	298,770	149,886
227,582	-0,097	298,527	149,881
228,596	-0,089	298,347	149,785
229,611	-0,328	298,259	149,488
230,626	-0,142	298,042	149,552
231,640	-0,284	297,785	149,268
232,655	-0,256	297,689	149,234
233,669	-0,454	297,474	148,915
234,684	-0,355	297,267	148,897
235,699	-0,201	296,989	148,898
236,713	-0,270	296,790	148,717
237,728	-0,339	296,684	148,582
238,742	-0,222	296,486	148,585
239,757	-0,042	296,129	148,572
240,772	-0,315	296,192	148,320
241,786	-0,284	295,733	148,107
242,801	-0,347	295,659	147,994
243,815	-0,266	295,537	148,001
244,830	-0,437	295,327	147,712
245,844	-0,379	295,025	147,606
246,859	-0,344	294,898	147,564
247,874	-0,339	294,685	147,449
248,888	-0,245	294,421	147,396
249,903	-0,373	294,235	147,164
250,917	-0,467	294,006	146,943
251,932	-0,428	293,886	146,909
252,947	-0,564	293,476	146,557
253,961	-1,421	292,969	145,448
254,976	-2,336	292,558	144,332
255,990	-2,209	292,314	144,324
257,005	-0,504	293,087	146,369
258,020	2,117	293,693	149,237
259,034	2,916	293,920	150,126
260,049	3,124	293,916	150,315
261,063	3,426	293,869	150,574
262,078	3,654	293,701	150,698
263,093	3,757	293,647	150,759
264,107	3,971	293,569	150,915
265,122	4,171	293,471	151,048
266,136	4,184	293,237	150,926
267,151	4,229	293,003	150,836
268,166	4,260	292,729	150,712
269,180	4,271	292,564	150,625
270,195	4,150	292,415	150,416
271,209	4,086	292,212	150,236
272,224	3,951	292,036	150,000
273,239	3,914	291,844	149,852
274,253	3,946	291,563	149,725
275,268	3,821	291,470	149,543
276,282	3,976	291,097	149,489
277,297	3,773	291,013	149,235
278,312	4,130	290,743	149,430
279,326	4,037	290,710	149,310
280,341	3,907	290,480	149,052
281,355	3,921	290,279	148,949
282,370	3,904	290,167	148,862
283,384	3,829	289,897	148,637
284,399	3,782	289,694	148,475
285,414	3,874	289,477	148,439
286,428	3,928	289,303	148,389
287,443	3,809	289,075	148,144
288,457	3,725	288,836	147,927
289,472	3,684	288,541	147,723
290,487	3,673	288,474	147,665
291,501	3,527	288,393	147,470
292,516	3,809	288,094	147,576
293,530	3,618	287,881	147,269
294,545	3,484	287,869	147,122
295,560	3,462	287,576	146,938
296,574	3,389	287,322	146,725
297,589	3,397	287,023	146,567
298,603	3,465	286,894	146,553
299,618	3,502	286,838	146,547
300,633	3,663	286,677	146,605
301,647	3,656	286,462	146,475
302,662	3,755	286,267	146,457
303,676	3,916	286,077	146,500
304,691	3,998	285,896	146,472
305,706	4,061	285,757	146,449
306,720	4,072	285,696	146,414
307,735	4,119	285,500	146,346
308,749	4,000	285,273	146,103
309,764	3,955	285,120	145,969
310,779	3,913	284,770	145,737
311,793	3,852	284,632	145,596
312,808	4,012	284,354	145,592
313,822	3,862	284,318	145,419
314,837	3,883	284,078	145,303
315,852	3,874	283,974	145,228
316,866	4,045	283,668	145,220
317,881	3,891	283,614	145,034
318,895	4,017	283,273	144,965
319,910	3,719	283,265	144,667
320,925	3,746	282,923	144,506
321,939	3,795	282,807	144,479
322,954	3,876	282,816	144,547
323,968	4,027	282,530	144,530
324,983	4,154	282,346	144,542
325,997	4,074	282,248	144,405
327,012	4,026	282,015	144,227
328,027	4,091	281,974	144,254
329,041	3,947	281,739	143,986
330,056	3,963	281,554	143,894
331,070	4,023	281,312	143,813
332,085	4,003	281,067	143,657
333,100	4,000	280,973	143,593
334,114	4,091	280,772	143,562
335,129	4,106	280,557	143,453
336,143	4,070	280,419	143,337
337,158	4,098	280,081	143,177
338,173	4,147	280,180	143,260
339,187	4,056	279,893	143,017
340,202	3,984	279,751	142,864
341,216	4,048	279,606	142,836
342,231	4,106	279,301	142,722
343,246	3,986	279,227	142,561
344,260	3,968	279,024	142,427
345,275	4,162	278,726	142,442
346,289	4,069	278,727	142,344
347,304	4,063	278,640	142,281
348,319	4,026	278,241	142,030
349,333	4,019	278,096	141,938
350,348	3,983	277,891	141,787
351,362	4,158	277,606	141,790
352,377	3,934	277,773	141,657
353,392	4,016	277,658	141,661
354,406	4,078	277,212	141,478
355,421	191,988	1349,323	1425,201
356,435	155,155	1480,018	1425,298
