DTS Sentinel unit serial number:	SN410029Multiplexer serial number:	ORYXHardware model number:	OX2-SRSoftware version number:	ORYX F/W v4,00 Oryx Data Collector v3.7.2.0data status	okinstallation	B4 Nyhavnadifferential loss correction	single-endedforward channel	channel 2reverse channel	N/Adate	2023/12/15time	22:40:13forward acquisition time	300,00reverse acquisition time	0,00gamma	499,1914k internal	0,3131k external	0,3131temperature offset calibration	1,0000default loss term (dB/km)	0,3820temperature slope calibration	1,0000multiplexer offset coefficient	1,0000multiplexer slope coefficient	1,0000fibre end	0,00T internal ref (°C)	21,44T ext. ref 1 (°C)	6,66T ext. ref 2 (°C)	6,83length (m)	temperature (°C)	Stokes	anti-Stokes-744,400	800,000	0,028	-0,083
-743,385	-155,173	-0,247	0,012
-742,371	179,135	0,120	0,131
-741,356	-50,606	-0,257	0,090
-740,342	71,524	0,078	0,060
-739,327	101,778	-0,186	0,161
-738,312	-10,591	0,056	0,027
-737,298	-168,918	-0,246	0,007
-736,283	-133,459	0,127	0,012
-735,269	513,327	-0,131	0,228
-734,254	356,909	0,008	-0,012
-733,239	-39,637	-0,427	-0,165
-732,225	-33,648	0,188	-0,077
-731,210	472,633	-0,052	0,087
-730,196	-200,000	-0,017	0,063
-729,181	9,243	0,035	-0,020
-728,167	800,000	-0,034	-0,090
-727,152	-200,000	-0,005	-0,127
-726,137	-32,962	-0,074	0,030
-725,123	-142,090	-0,181	-0,013
-724,108	-105,688	-0,157	-0,026
-723,094	715,386	-0,044	-0,087
-722,079	800,000	-0,037	-0,091
-721,064	18,689	0,034	0,020
-720,050	-200,000	-0,008	-0,049
-719,035	-200,000	-0,025	0,106
-718,021	207,337	-0,092	0,107
-717,006	-200,000	0,014	0,049
-715,991	240,719	-0,048	-0,060
-714,977	-26,916	-0,198	-0,086
-713,962	-200,000	0,014	-0,097
-712,948	12,520	0,093	-0,053
-711,933	632,006	0,063	-0,119
-710,918	18,404	-0,082	-0,048
-709,904	-200,000	-0,005	0,026
-708,889	-200,000	0,007	-0,028
-707,875	-200,000	-0,007	-0,055
-706,860	800,000	-0,033	-0,098
-705,845	-36,455	-0,082	-0,033
-704,831	152,899	0,032	0,032
-703,816	-200,000	-0,009	-0,075
-702,802	-12,901	-0,056	0,027
-701,787	308,308	0,041	-0,057
-700,772	71,964	0,094	0,072
-699,758	-44,469	0,021	0,008
-698,743	-139,418	0,211	0,017
-697,729	337,813	-0,025	0,036
-696,714	424,891	-0,059	-0,094
-695,699	-200,000	0,017	-0,146
-694,685	-200,000	0,026	-0,180
-693,670	-200,000	-0,003	-0,093
-692,656	235,317	-0,069	-0,085
-691,641	499,512	0,014	-0,025
-690,627	359,569	0,067	0,100
-689,612	303,378	0,037	0,051
-688,597	-200,000	-0,033	-0,193
-687,583	800,000	-0,048	-0,101
-686,568	800,000	-0,022	-0,051
-685,554	44,764	-0,066	0,045
-684,539	-10,860	-0,022	-0,011
-683,524	-157,312	0,025	0,001
-682,510	-200,000	-0,015	-0,072
-681,495	231,594	0,047	0,058
-680,481	629,975	-0,052	-0,097
-679,466	153,914	-0,099	-0,101
-678,451	276,897	0,055	-0,073
-677,437	487,879	0,060	-0,101
-676,422	-18,826	0,139	0,064
-675,408	800,000	-0,098	0,209
-674,393	228,796	0,061	0,074
-673,378	-200,000	-0,025	-0,223
-672,364	-200,000	0,001	-0,042
-671,349	74,868	-0,077	-0,060
-670,335	-200,000	0,027	-0,113
-669,320	-68,512	0,119	-0,034
-668,305	-200,000	0,034	-0,179
-667,291	-65,314	-0,047	-0,014
-666,276	8,678	-0,077	0,043
-665,262	-200,000	0,044	0,157
-664,247	564,633	0,019	0,035
-663,232	-41,434	0,038	-0,015
-662,218	67,164	0,078	0,059
-661,203	323,084	-0,110	0,156
-660,189	605,224	-0,052	0,097
-659,174	-110,686	-0,186	-0,028
-658,159	-26,759	-0,070	0,030
-657,145	-93,153	-0,178	0,036
-656,130	96,597	-0,027	-0,023
-655,116	-200,000	0,000	0,111
-654,101	132,172	-0,080	0,076
-653,086	-200,000	0,009	0,090
-652,072	391,698	-0,063	0,098
-651,057	800,000	0,042	-0,126
-650,043	-20,051	0,106	-0,048
-649,028	352,768	-0,093	0,138
-648,014	155,806	0,013	0,014
-646,999	50,823	0,030	-0,021
-645,984	-111,554	0,070	-0,010
-644,970	800,000	-0,024	0,070
-643,955	-106,142	-0,096	0,016
-642,941	72,568	0,073	-0,056
-641,926	118,132	-0,130	0,118
-640,911	-200,000	-0,010	0,160
-639,897	233,179	0,006	-0,007
-638,882	-108,129	0,062	-0,010
-637,868	9,693	-0,146	-0,082
-636,853	-49,479	-0,075	-0,026
-635,838	800,000	0,026	-0,061
-634,824	15,595	-0,075	0,044
-633,809	377,725	-0,054	-0,081
-632,795	203,974	-0,086	-0,099
-631,780	170,296	-0,192	0,204
-630,765	44,505	-0,090	-0,061
-629,751	40,082	0,065	0,043
-628,736	-16,518	-0,116	0,054
-627,722	150,965	0,039	0,039
-626,707	19,396	0,047	-0,028
-625,692	-37,805	0,149	0,059
-624,678	-200,000	0,006	-0,119
-623,663	-146,913	-0,124	-0,008
-622,649	800,000	-0,025	0,053
-621,634	194,559	-0,090	-0,101
-620,619	-200,000	0,014	-0,079
-619,605	46,442	0,153	-0,105
-618,590	-61,012	-0,102	0,032
-617,576	-200,000	0,001	0,064
-616,561	615,489	0,053	-0,098
-615,546	-200,000	-0,015	-0,095
-614,532	-118,342	-0,124	-0,016
-613,517	130,735	0,031	-0,029
-612,503	-200,000	-0,023	0,078
-611,488	-74,764	0,168	0,044
-610,474	-28,356	-0,092	-0,039
-609,459	-96,803	0,126	-0,024
-608,444	-118,948	-0,150	-0,019
-607,430	-42,868	-0,079	-0,030
-606,415	-200,000	0,014	0,102
-605,401	-200,000	-0,041	-0,172
-604,386	77,401	0,020	-0,016
-603,371	-200,000	0,003	-0,028
-602,357	270,179	0,038	-0,050
-601,342	202,562	0,052	-0,060
-600,328	523,628	-0,057	-0,099
-599,313	-200,000	-0,029	0,113
-598,298	-21,834	-0,108	0,049
-597,284	800,000	-0,015	0,041
-596,269	45,749	0,020	0,014
-595,255	800,000	0,060	-0,129
-594,240	-41,790	0,129	0,049
-593,225	1,093	-0,200	-0,106
-592,211	40,713	-0,001	0,001
-591,196	-200,000	-0,011	0,041
-590,182	-81,935	0,111	0,027
-589,167	166,098	0,102	0,106
-588,152	427,367	-0,075	0,121
-587,138	-11,012	-0,055	0,027
-586,123	-100,299	-0,096	-0,017
-585,109	3,179	-0,023	-0,012
-584,094	-109,443	0,102	-0,016
-583,079	800,000	0,012	-0,029
-582,065	-92,736	0,077	-0,016
-581,050	-200,000	0,018	-0,066
-580,036	106,462	-0,044	-0,039
-579,021	448,995	-0,053	-0,087
-578,006	299,114	0,040	-0,055
-576,992	569,515	0,046	-0,083
-575,977	-92,224	0,080	0,016
-574,963	-114,781	0,070	-0,010
-573,948	440,061	0,027	0,043
-572,934	-200,000	0,007	-0,031
-571,919	107,735	-0,027	-0,024
-570,904	-200,000	0,023	-0,131
-569,890	-73,174	0,164	-0,044
-568,875	185,024	0,077	0,084
-567,861	-200,000	-0,002	0,061
-566,846	-1,980	0,055	0,029
-565,831	-124,171	0,009	-0,001
-564,817	800,000	-0,020	-0,042
-563,802	800,000	-0,039	-0,093
-562,788	-200,000	0,021	-0,190
-561,773	74,881	-0,106	0,083
-560,758	800,000	-0,042	0,113
-559,744	-105,692	-0,065	-0,011
-558,729	-144,977	-0,127	0,008
-557,715	386,503	0,024	-0,036
-556,700	800,000	-0,023	-0,067
-555,685	-200,000	-0,010	-0,065
-554,671	-13,368	-0,060	0,028
-553,656	703,435	-0,042	-0,082
-552,642	252,476	0,054	-0,068
-551,627	753,652	0,016	0,032
-550,612	-200,000	-0,013	0,129
-549,598	289,416	0,076	-0,102
-548,583	-26,742	-0,098	0,042
-547,569	-66,080	-0,075	-0,022
-546,554	-200,000	-0,000	0,005
-545,539	-110,633	0,092	0,014
-544,525	800,000	0,023	-0,062
-543,510	800,000	0,036	0,084
-542,496	-200,000	0,021	-0,088
-541,481	82,500	-0,044	0,035
-540,466	103,350	0,136	-0,117
-539,452	800,000	-0,025	-0,057
-538,437	-200,000	-0,006	0,029
-537,423	-200,000	0,006	0,163
-536,408	260,847	0,008	0,010
-535,393	259,105	-0,043	0,055
-534,379	118,123	0,040	0,036
-533,364	-128,715	-0,164	0,017
-532,350	368,648	0,022	-0,032
-531,335	-123,176	-0,110	0,013
-530,321	-26,851	-0,076	0,033
-529,306	130,635	0,052	0,049
-528,291	-103,509	0,097	-0,017
-527,277	-92,241	0,124	0,026
-526,262	-200,000	0,002	0,112
-525,248	47,044	0,130	-0,089
-524,233	-173,292	0,157	-0,003
-523,218	-137,118	0,086	0,007
-522,204	79,777	-0,111	0,088
-521,189	72,231	0,064	0,049
-520,175	101,004	-0,006	-0,005
-519,160	32,697	0,056	-0,035
-518,145	-200,000	0,005	0,184
-517,131	-24,069	0,060	-0,026
-516,116	419,492	-0,035	0,055
-515,102	800,000	-0,079	0,167
-514,087	-43,428	0,045	-0,017
-513,072	409,626	-0,060	-0,094
-512,058	0,342	-0,100	-0,052
-511,043	-200,000	-0,005	0,099
-510,029	-107,299	0,049	-0,008
-509,014	194,282	-0,086	0,096
-507,999	195,643	0,104	-0,117
-506,985	-104,230	-0,067	0,011
-505,970	-200,000	-0,029	-0,137
-504,956	-6,223	0,086	0,043
-503,941	80,002	-0,006	0,005
-502,926	-74,682	0,101	0,026
-501,912	-200,000	-0,007	0,035
-500,897	46,050	0,107	0,073
-499,883	73,792	-0,069	-0,053
-498,868	-200,000	-0,016	-0,083
-497,853	-35,186	-0,037	0,015
-496,839	39,563	0,167	-0,110
-495,824	-16,754	-0,118	0,055
-494,810	142,661	-0,079	0,078
-493,795	-142,458	-0,079	-0,006
-492,781	800,000	-0,013	-0,036
-491,766	-26,558	-0,143	-0,061
-490,751	-200,000	-0,014	-0,076
-489,737	-200,000	-0,011	0,058
-488,722	-200,000	-0,025	0,114
-487,708	133,451	-0,073	0,070
-486,693	-200,000	-0,008	0,183
-485,678	211,342	-0,082	-0,095
-484,664	-200,000	0,016	0,083
-483,649	-97,553	-0,112	-0,021
-482,635	771,403	-0,038	-0,077
-481,620	112,804	0,060	0,054
-480,605	-200,000	-0,013	0,074
-479,591	800,000	0,005	0,013
-478,576	70,777	0,048	0,037
-477,562	-69,638	0,099	0,028
-476,547	135,343	-0,083	-0,080
-475,532	800,000	0,037	-0,080
-474,518	-200,000	0,000	-0,014
-473,503	537,916	0,035	-0,062
-472,489	151,450	-0,059	0,060
-471,474	298,809	-0,061	0,082
-470,459	697,518	-0,037	-0,071
-469,445	455,794	0,047	-0,077
-468,430	-56,484	-0,085	-0,028
-467,416	105,778	0,068	0,059
-466,401	-154,309	0,188	-0,009
-465,386	72,247	-0,089	-0,068
-464,372	180,378	-0,042	-0,045
-463,357	-6,614	-0,018	0,009
-462,343	-143,329	-0,092	-0,006
-461,328	800,000	-0,019	0,049
-460,313	130,077	0,122	0,115
-459,299	-200,000	0,016	-0,096
-458,284	458,085	0,021	0,034
-457,270	-10,552	-0,070	0,034
-456,255	-173,939	-0,006	0,000
-455,241	162,403	0,093	-0,096
-454,226	800,000	0,049	-0,130
-453,211	-64,847	-0,106	-0,031
-452,197	-36,516	0,121	-0,048
-451,182	63,763	0,072	-0,053
-450,168	-116,537	-0,027	-0,004
-449,153	-166,187	-0,060	-0,002
-448,138	324,398	-0,055	-0,077
-447,124	-200,000	0,010	0,114
-446,109	-176,569	0,124	0,002
-445,095	-72,636	0,169	0,045
-444,080	-200,000	0,017	-0,072
-443,065	578,936	0,022	-0,039
-442,051	77,016	-0,051	0,040
-441,036	289,888	-0,035	-0,047
-440,022	800,000	-0,012	0,028
-439,007	-44,010	0,062	-0,023
-437,992	0,127	0,099	-0,051
-436,978	16,440	0,102	-0,059
-435,963	-31,096	0,064	0,026
-434,949	800,000	-0,028	0,082
-433,934	124,402	-0,052	-0,048
-432,919	204,560	-0,105	-0,119
-431,905	271,733	-0,071	-0,092
-430,890	-36,102	0,085	0,034
-429,876	-129,833	0,127	-0,013
-428,861	10,095	0,019	0,010
-427,846	800,000	-0,011	0,030
-426,832	7,209	-0,032	-0,017
-425,817	-79,186	-0,152	-0,038
-424,803	-17,221	-0,069	-0,032
-423,788	-47,046	0,074	-0,026
-422,773	53,866	0,059	-0,041
-421,759	-130,076	0,071	-0,007
-420,744	101,683	0,007	-0,006
-419,730	-132,262	-0,116	-0,011
-418,715	-1,908	0,080	0,041
-417,701	-8,741	0,021	-0,010
-416,686	-74,692	0,137	0,036
-415,671	-114,729	0,121	-0,017
-414,657	-67,702	-0,120	0,034
-413,642	163,782	0,031	0,032
-412,628	-200,000	0,036	0,130
-411,613	-200,000	-0,025	-0,135
-410,598	-200,000	-0,022	-0,122
-409,584	180,530	-0,120	-0,129
-408,569	371,701	0,048	0,072
-407,555	526,239	-0,046	-0,079
-406,540	-192,167	0,097	0,001
-405,525	347,630	0,025	-0,036
-404,511	-83,333	0,154	0,036
-403,496	424,731	-0,052	-0,083
-402,482	800,000	0,064	0,137
-401,467	-200,000	-0,008	-0,031
-400,452	128,262	0,093	-0,087
-399,438	-94,885	-0,176	0,035
-398,423	215,351	0,064	-0,075
-397,409	522,933	0,018	0,031
-396,394	198,349	0,060	0,067
-395,379	800,000	-0,062	-0,143
-394,365	-200,000	-0,012	0,048
-393,350	18,852	-0,028	-0,016
-392,336	116,140	-0,089	0,080
-391,321	-200,000	-0,016	0,100
-390,306	-18,908	-0,095	-0,043
-389,292	149,411	0,007	-0,007
-388,277	374,017	0,012	-0,018
-387,263	800,000	0,011	0,027
-386,248	-66,279	-0,028	0,008
-385,233	800,000	-0,064	-0,151
-384,219	-200,000	-0,004	-0,131
-383,204	604,694	-0,036	0,067
-382,190	152,400	0,108	0,108
-381,175	-200,000	0,007	-0,120
-380,160	269,593	-0,069	-0,089
-379,146	131,735	0,033	0,031
-378,131	-188,360	0,023	-0,000
-377,117	-200,000	-0,007	-0,034
-376,102	167,080	0,043	0,045
-375,088	-200,000	-0,023	-0,108
-374,073	800,000	0,024	-0,078
-373,058	-200,000	-0,002	-0,071
-372,044	-200,000	0,000	0,181
-371,029	-200,000	0,012	0,060
-370,015	-200,000	0,004	-0,099
-369,000	-200,000	-0,039	-0,156
-367,985	-200,000	-0,009	0,102
-366,971	-63,348	0,097	0,029
-365,956	-200,000	0,025	0,087
-364,942	-200,000	0,015	0,069
-363,927	227,335	0,101	-0,121
-362,912	-200,000	-0,001	-0,061
-361,898	87,882	-0,031	0,025
-360,883	277,113	-0,081	-0,106
-359,869	360,130	-0,053	-0,077
-358,854	-200,000	0,005	0,074
-357,839	-200,000	-0,006	0,032
-356,825	60,006	0,165	-0,119
-355,810	-6,829	0,046	0,023
-354,796	-7,374	-0,071	0,035
-353,781	-127,905	0,112	0,012
-352,766	238,753	-0,055	0,067
-351,752	-200,000	-0,012	-0,052
-350,737	-182,367	0,023	-0,000
-349,723	656,128	-0,022	0,042
-348,708	301,141	0,070	0,095
-347,693	800,000	0,036	0,097
-346,679	800,000	-0,039	0,097
-345,664	23,388	0,060	0,036
-344,650	-123,795	0,136	0,016
-343,635	62,004	0,043	-0,032
-342,620	-76,027	0,068	-0,017
-341,606	-200,000	-0,031	0,153
-340,591	-111,506	-0,056	-0,008
-339,577	477,004	-0,076	0,125
-338,562	-200,000	-0,033	0,160
-337,548	-35,169	0,126	0,050
-336,533	340,591	-0,074	0,106
-335,518	88,018	0,050	-0,040
-334,504	-116,623	0,061	-0,008
-333,489	169,765	-0,077	0,081
-332,475	800,000	-0,059	-0,150
-331,460	89,795	-0,054	-0,044
-330,445	183,694	-0,104	0,113
-329,431	8,860	-0,037	0,021
-328,416	75,977	-0,027	-0,021
-327,402	14,693	-0,070	0,040
-326,387	800,000	0,049	0,130
-325,372	354,383	-0,031	0,046
-324,358	-200,000	-0,002	-0,048
-323,343	-19,036	0,142	-0,064
-322,329	121,698	-0,080	-0,073
-321,314	-200,000	0,024	0,113
-320,299	-200,000	-0,028	0,192
-319,285	534,847	-0,039	-0,068
-318,270	54,679	0,027	-0,019
-317,256	800,000	-0,026	0,065
-316,241	-45,008	0,103	-0,037
-315,226	-200,000	0,008	0,027
-314,212	470,533	-0,020	-0,032
-313,197	800,000	0,007	-0,017
-312,183	-40,334	-0,102	-0,039
-311,168	4,501	-0,098	-0,053
-310,153	800,000	-0,044	-0,108
-309,139	-49,859	0,071	-0,024
-308,124	201,216	-0,031	-0,035
-307,110	-11,561	0,078	-0,037
-306,095	89,169	0,085	-0,069
-305,080	-48,562	-0,110	0,039
-304,066	234,906	-0,085	-0,102
-303,051	321,560	0,028	-0,040
-302,037	800,000	-0,025	0,071
-301,022	57,110	0,022	0,016
-300,008	80,274	-0,050	-0,039
-298,993	176,469	0,066	0,070
-297,978	800,000	0,030	-0,060
-296,964	287,267	-0,032	-0,043
-295,949	-91,206	0,114	-0,024
-294,935	-109,436	0,031	0,005
-293,920	-116,750	0,035	-0,005
-292,905	-61,935	0,051	0,015
-291,891	-40,609	0,156	-0,059
-290,876	308,288	-0,023	-0,032
-289,862	179,141	0,018	0,020
-288,847	175,339	-0,117	0,124
-287,832	800,000	0,043	-0,093
-286,818	231,236	0,072	0,086
-285,803	85,556	-0,031	0,025
-284,789	-200,000	-0,029	0,129
-283,774	443,331	-0,085	0,136
-282,759	-200,000	0,008	-0,122
-281,745	339,754	0,049	0,070
-280,730	-200,000	-0,034	0,138
-279,716	-131,812	0,059	0,006
-278,701	273,742	-0,046	-0,060
-277,686	800,000	-0,053	0,111
-276,672	-46,733	-0,039	0,014
-275,657	11,120	-0,039	-0,022
-274,643	-200,000	0,000	-0,154
-273,628	245,853	-0,042	0,052
-272,613	9,692	-0,286	0,158
-271,599	-200,000	0,002	-0,123
-270,584	100,801	-0,046	0,039
-269,570	800,000	-0,079	0,248
-268,555	-3,501	0,135	-0,069
-267,540	-200,000	-0,008	0,031
-266,526	-163,403	-0,076	-0,003
-265,511	248,377	0,006	-0,008
-264,497	-105,793	0,048	-0,008
-263,482	-12,686	0,049	-0,023
-262,467	385,841	0,096	0,145
-261,453	12,417	0,106	0,060
-260,438	28,185	-0,090	-0,055
-259,424	195,505	-0,044	-0,049
-258,409	3,596	-0,106	0,056
-257,395	20,372	0,098	0,058
-256,380	121,684	0,050	0,045
-255,365	-54,170	0,133	0,044
-254,351	40,687	0,047	-0,031
-253,336	-66,798	-0,041	0,012
-252,322	800,000	-0,023	-0,056
-251,307	-8,137	0,107	-0,052
-250,292	800,000	-0,007	0,018
-249,278	-96,284	-0,097	-0,019
-248,263	287,180	0,022	0,030
-247,249	-138,079	0,092	0,007
-246,234	-93,702	-0,107	0,021
-245,219	44,159	0,063	0,042
-244,205	213,954	-0,039	0,045
-243,190	-80,769	0,126	-0,030
-242,176	-100,888	0,093	0,017
-241,161	100,596	-0,046	0,039
-240,146	477,477	0,050	-0,084
-239,132	800,000	-0,039	-0,099
-238,117	-176,614	0,070	-0,001
-237,103	-200,000	-0,029	0,116
-236,088	162,025	0,032	0,033
-235,073	-27,633	0,124	0,052
-234,059	-200,000	0,014	-0,098
-233,044	-27,626	0,068	0,029
-232,030	-26,908	-0,110	0,047
-231,015	-34,212	-0,128	0,051
-230,000	8,588	0,026	0,014
-228,986	-200,000	-0,005	-0,021
-227,971	19,017	0,077	-0,045
-226,957	-58,280	0,124	-0,039
-225,942	105,619	-0,084	0,073
-224,927	370,975	-0,045	0,067
-223,913	-200,000	-0,032	0,119
-222,898	258,659	-0,035	0,044
-221,884	-88,161	-0,044	-0,010
-220,869	-64,806	0,107	0,031
-219,855	-111,365	0,209	0,031
-218,840	-174,474	-0,006	0,000
-217,825	-200,000	0,006	-0,058
-216,811	-200,000	-0,014	0,133
-215,796	-200,000	-0,002	0,013
-214,782	98,344	0,108	-0,091
-213,767	-22,516	-0,133	-0,058
-212,752	-200,000	0,004	-0,073
-211,738	-127,777	0,094	-0,010
-210,723	761,319	0,094	0,187
-209,709	-200,000	0,032	-0,146
-208,694	800,000	-0,051	-0,123
-207,679	-84,370	-0,087	0,020
-206,665	-27,407	-0,099	0,042
-205,650	-48,266	0,129	0,045
-204,636	26,951	-0,070	0,042
-203,621	32,980	0,038	0,024
-202,606	-200,000	-0,008	0,058
-201,592	800,000	-0,055	-0,128
-200,577	800,000	-0,026	-0,075
-199,563	787,985	-0,028	0,056
-198,548	-200,000	0,007	-0,042
-197,533	-200,000	0,003	0,079
-196,519	128,536	0,052	0,049
-195,504	69,165	0,022	0,016
-194,490	800,000	0,052	-0,139
-193,475	-200,000	0,005	0,045
-192,460	-178,941	0,041	0,001
-191,446	-200,000	0,011	0,180
-190,431	800,000	0,058	0,132
-189,417	121,822	-0,063	0,057
-188,402	290,904	-0,055	-0,073
-187,387	-200,000	0,036	-0,118
-186,373	328,589	-0,082	-0,115
-185,358	800,000	0,075	-0,167
-184,344	-136,062	0,096	0,008
-183,329	305,210	-0,088	0,120
-182,315	-200,000	-0,021	0,097
-181,300	-73,038	-0,072	-0,019
-180,285	-68,615	-0,102	0,029
-179,271	402,484	-0,072	-0,110
-178,256	220,071	0,043	-0,050
-177,242	-200,000	-0,002	-0,047
-176,227	-200,000	-0,012	-0,065
-175,212	24,808	0,091	0,054
-174,198	-43,497	-0,172	0,063
-173,183	-200,000	-0,006	0,026
-172,169	-112,890	-0,120	0,017
-171,154	133,039	0,033	-0,031
-170,139	-127,998	0,097	-0,010
-169,125	-200,000	0,004	0,040
-168,110	-108,852	-0,071	-0,011
-167,096	248,755	-0,034	-0,042
-166,081	206,110	-0,081	-0,091
-165,066	18,589	-0,114	0,066
-164,052	207,707	-0,039	0,044
-163,037	12,372	0,030	-0,017
-162,023	-132,618	0,139	0,013
-161,008	-200,000	0,011	-0,062
-159,993	-54,972	0,065	0,021
-158,979	-200,000	-0,018	-0,182
-157,964	-174,984	-0,070	-0,001
-156,950	800,000	-0,050	-0,159
-155,935	800,000	0,035	-0,105
-154,920	-200,000	0,009	0,136
-153,906	800,000	0,058	0,139
-152,891	-44,387	-0,131	-0,048
-151,877	-200,000	-0,023	-0,132
-150,862	311,596	0,127	-0,174
-149,847	-12,316	-0,133	-0,063
-148,833	22,053	-0,072	-0,043
-147,818	171,288	-0,053	-0,055
-146,804	116,520	0,124	0,110
-145,789	315,796	0,078	0,107
-144,775	178,631	0,162	0,172
-143,760	74,383	0,064	0,049
-142,745	-200,000	-0,020	0,073
-141,731	-191,496	-0,135	-0,001
-140,716	-200,000	0,020	0,086
-139,702	54,087	-0,067	-0,047
-138,687	-40,345	0,113	0,042
-137,672	-71,696	-0,037	0,010
-136,658	-98,520	-0,094	-0,017
-135,643	556,190	-0,028	-0,049
-134,629	98,624	-0,144	-0,120
-133,614	46,409	0,045	0,030
-132,599	-200,000	0,001	-0,014
-131,585	800,000	0,011	0,024
-130,570	372,476	-0,057	-0,085
-129,556	-200,000	0,002	-0,042
-128,541	708,396	-0,040	0,077
-127,526	39,462	-0,129	0,084
-126,512	-141,428	-0,061	0,004
-125,497	293,252	0,022	-0,029
-124,483	17,063	0,091	0,052
-123,468	579,790	-0,028	0,050
-122,453	-200,000	0,008	-0,208
-121,439	75,152	-0,093	0,071
-120,424	-45,916	0,038	0,013
-119,410	-110,114	-0,107	-0,016
-118,395	167,962	0,129	0,133
-117,380	800,000	-0,029	0,074
-116,366	308,705	-0,072	0,098
-115,351	800,000	-0,019	0,039
-114,337	55,956	0,070	-0,049
-113,322	400,436	-0,024	0,037
-112,307	8,262	0,075	-0,041
-111,293	800,000	-0,063	0,167
-110,278	-91,430	-0,177	0,036
-109,264	193,917	0,074	0,082
-108,249	-62,129	-0,115	0,035
-107,234	-8,105	-0,085	0,041
-106,220	-55,271	-0,091	-0,030
-105,205	41,423	0,037	-0,024
-104,191	800,000	0,017	0,037
-103,176	-7,327	-0,078	-0,038
-102,162	-200,000	-0,003	-0,035
-101,147	291,398	-0,093	-0,124
-100,132	248,053	-0,077	-0,095
-99,118	-200,000	-0,006	-0,094
-98,103	800,000	0,057	0,150
-97,089	800,000	0,063	0,164
-96,074	800,000	0,069	0,161
-95,059	-200,000	-0,020	0,071
-94,045	-121,439	0,111	0,013
-93,030	218,369	-0,090	-0,104
-92,016	-119,108	-0,079	-0,010
-91,001	-71,511	0,109	0,029
-89,986	-32,424	-0,040	-0,016
-88,972	99,882	-0,081	-0,068
-87,957	800,000	0,029	0,094
-86,943	800,000	-0,006	-0,013
-85,928	-200,000	0,001	0,083
-84,913	-127,584	-0,160	-0,017
-83,899	-6,016	0,072	0,035
-82,884	-200,000	0,033	-0,119
-81,870	-8,344	-0,035	0,017
-80,855	-200,000	-0,007	-0,065
-79,840	-160,378	-0,124	-0,005
-78,826	800,000	0,025	-0,075
-77,811	450,874	-0,038	0,061
-76,797	-103,101	-0,091	0,015
-75,782	24,932	-0,033	0,020
-74,767	63,517	-0,119	-0,087
-73,753	291,357	0,115	0,151
-72,738	-143,768	-0,090	0,006
-71,724	203,777	-0,086	-0,096
-70,709	-200,000	0,020	-0,070
-69,694	-150,424	-0,063	0,003
-68,680	800,000	0,038	0,107
-67,665	-200,000	0,129	0,000
-66,651	-200,000	-0,004	0,060
-65,636	-200,000	-0,017	0,066
-64,622	-12,540	-0,115	-0,054
-63,607	-149,198	-0,150	-0,009
-62,592	-200,000	0,011	0,057
-61,578	800,000	-0,009	-0,019
-60,563	263,133	0,096	0,121
-59,549	21,743	0,093	0,055
-58,534	-123,137	-1,487	-0,171
-57,519	800,000	-0,626	-1,374
-56,505	-200,000	-0,790	-4,421
-55,490	-99,721	0,595	-0,107
-54,476	800,000	4,958	11,476
-53,461	-200,000	14,229	255,759
-52,446	-200,000	694,351	2237,737
-51,432	576,861	1620,743	2878,757
-50,417	117,313	1629,225	1449,697
-49,403	74,540	1283,380	975,731
-48,388	37,601	1020,872	654,349
-47,373	23,633	979,714	582,219
-46,359	22,772	969,109	573,079
-45,344	21,673	964,867	566,972
-44,330	21,704	963,215	566,080
-43,315	21,548	961,773	564,705
-42,300	21,505	960,627	563,871
-41,286	21,511	959,870	563,423
-40,271	21,562	958,644	562,846
-39,257	21,509	957,762	562,134
-38,242	21,462	957,010	561,518
-37,227	21,503	955,976	561,023
-36,213	21,430	955,189	560,302
-35,198	21,370	954,450	559,655
-34,184	21,454	953,581	559,392
-33,169	21,395	952,833	558,740
-32,154	21,520	951,717	558,466
-31,140	21,450	951,011	557,806
-30,125	21,494	950,398	557,566
-29,111	21,560	949,352	557,139
-28,096	21,493	948,813	556,587
-27,082	21,473	948,085	556,075
-26,067	21,517	947,261	555,708
-25,052	21,447	946,561	555,053
-24,038	21,463	945,933	554,714
-23,023	21,492	945,389	554,465
-22,009	21,477	944,696	553,988
-20,994	21,485	944,032	553,602
-19,979	21,489	943,415	553,233
-18,965	21,448	942,830	552,736
-17,950	21,510	942,217	552,551
-16,936	21,421	941,544	551,852
-15,921	21,463	940,733	551,488
-14,906	21,360	940,029	550,729
-13,892	21,374	939,349	550,351
-12,877	21,341	938,882	549,951
-11,863	21,317	938,113	549,405
-10,848	21,388	937,488	549,239
-9,833	21,457	937,221	549,280
-8,819	21,416	936,648	548,793
-7,804	21,332	936,024	548,140
-6,790	21,355	935,537	547,906
-5,775	21,364	934,787	547,474
-4,760	21,375	934,274	547,186
-3,746	21,324	933,683	546,659
-2,731	21,235	932,797	545,837
-1,717	21,225	932,040	545,343
-0,702	21,170	931,363	544,751
0,313	20,931	930,880	544,542
1,327	23,559	928,391	551,264
2,342	31,248	806,321	499,521
3,356	26,270	507,130	305,693
4,371	2,407	372,249	194,204
5,386	-0,476	355,196	181,775
6,400	-1,993	349,039	176,789
7,415	-2,905	346,184	174,241
8,429	-3,027	344,596	173,281
9,444	-3,332	343,757	172,484
10,459	-3,136	343,058	172,349
11,473	-3,203	342,416	171,932
12,488	-2,942	341,822	171,926
13,502	-3,075	341,512	171,598
14,517	-3,144	340,848	171,169
15,531	-3,376	340,227	170,570
16,546	-3,310	339,640	170,337
17,561	-3,293	339,228	170,135
18,575	-3,301	338,958	169,976
19,590	-3,410	338,514	169,610
20,604	-3,279	338,285	169,633
21,619	-3,469	337,709	169,108
22,634	-3,298	337,507	169,191
23,648	-3,229	337,043	169,023
24,663	-3,259	336,737	168,820
25,677	-3,218	336,505	168,736
26,692	-3,406	336,295	168,398
27,707	-3,379	335,880	168,207
28,721	-3,357	335,571	168,062
29,736	-3,486	335,276	167,751
30,750	-3,458	334,962	167,611
31,765	-3,464	334,796	167,506
32,780	-3,305	334,399	167,475
33,794	-3,325	334,088	167,282
34,809	-3,443	333,835	167,004
35,823	-3,319	333,472	166,950
36,838	-3,439	333,232	166,677
37,853	-3,310	333,085	166,737
38,867	-3,307	332,645	166,505
39,882	-3,558	332,515	166,139
40,896	-3,409	332,138	166,106
41,911	-3,567	331,964	165,824
42,926	-3,417	331,676	165,836
43,940	-3,456	331,394	165,635
44,955	-3,397	330,999	165,490
45,969	-3,537	330,745	165,190
46,984	-3,511	330,440	165,053
47,999	-3,661	330,228	164,763
49,013	-3,811	329,971	164,449
50,028	-4,014	329,624	164,032
51,042	-3,931	329,322	163,961
52,057	-3,963	329,219	163,859
53,071	-3,833	328,794	163,780
54,086	-3,903	328,521	163,550
55,101	-3,740	328,507	163,712
56,115	-3,590	328,161	163,693
57,130	-3,468	327,981	163,726
58,144	-3,313	327,809	163,800
59,159	-3,245	327,505	163,709
60,174	-3,272	327,324	163,574
61,188	-3,434	327,177	163,305
62,203	-3,207	326,798	163,355
63,217	-3,424	326,800	163,098
64,232	-3,258	326,227	162,984
65,247	-3,109	326,048	163,046
66,261	-3,299	325,783	162,687
67,276	-3,489	325,363	162,251
68,290	-3,546	325,076	162,031
69,305	-3,596	324,986	161,915
70,320	-3,485	324,536	161,800
71,334	-3,313	324,329	161,873
72,349	-3,371	324,231	161,745
73,363	-3,188	323,919	161,778
74,378	-3,152	323,660	161,674
75,393	-3,189	323,416	161,497
76,407	-3,265	323,138	161,260
77,422	-3,449	322,895	160,921
78,436	-3,318	322,897	161,052
79,451	-3,248	322,463	160,898
80,466	-3,282	322,074	160,653
81,480	-3,594	321,924	160,220
82,495	-3,500	321,572	160,134
83,509	-3,251	321,353	160,284
84,524	-3,539	321,154	159,855
85,539	-3,708	320,893	159,525
86,553	-3,494	320,633	159,616
87,568	-3,463	320,371	159,505
88,582	-3,574	320,280	159,325
89,597	-3,489	319,940	159,234
90,611	-3,493	319,803	159,148
91,626	-3,340	319,485	159,141
92,641	-3,430	319,507	159,039
93,655	-3,432	318,992	158,768
94,670	-3,619	318,905	158,506
95,684	-3,505	318,629	158,479
96,699	-3,556	318,502	158,346
97,714	-3,496	318,060	158,177
98,728	-3,611	317,965	157,991
99,743	-3,589	317,501	157,770
100,757	-3,613	317,280	157,620
101,772	-3,724	317,195	157,444
102,787	-3,396	316,829	157,603
103,801	-3,421	316,740	157,518
104,816	-3,383	316,490	157,421
105,830	-3,402	316,497	157,389
106,845	-3,325	316,118	157,270
107,860	-3,452	315,882	157,001
108,874	-3,509	315,833	156,901
109,889	-3,509	315,439	156,692
110,903	-3,420	315,061	156,587
111,918	-3,499	314,882	156,398
112,933	-3,461	314,612	156,290
113,947	-3,349	314,433	156,309
114,962	-3,495	314,313	156,078
115,976	-3,365	314,030	156,063
116,991	-3,534	313,832	155,770
118,006	-3,360	313,562	155,808
119,020	-3,348	313,526	155,789
120,035	-3,336	313,345	155,698
121,049	-3,267	313,049	155,611
122,064	-3,244	312,778	155,487
123,079	-3,275	312,696	155,399
124,093	-3,320	312,310	155,145
125,108	-3,431	312,029	154,874
126,122	-3,709	311,837	154,470
127,137	-3,757	311,659	154,317
128,151	-3,643	311,369	154,280
129,166	-3,570	311,233	154,277
130,181	-3,546	310,928	154,136
131,195	-3,502	310,811	154,112
132,210	-3,400	310,549	154,076
133,224	-3,567	310,458	153,840
134,239	-3,454	310,044	153,742
135,254	-3,317	309,772	153,736
136,268	-3,348	309,642	153,626
137,283	-3,677	309,295	153,094
138,297	-3,628	309,078	153,024
139,312	-3,497	308,809	153,015
140,327	-3,442	308,762	153,036
141,341	-3,213	308,707	153,235
142,356	-3,193	308,471	153,125
143,370	-3,081	308,331	153,160
144,385	-3,106	308,025	152,968
145,400	-3,254	307,749	152,662
146,414	-2,891	307,388	152,849
147,429	-3,013	307,335	152,681
148,443	-3,132	307,233	152,493
149,458	-3,046	307,006	152,456
150,473	-3,110	306,847	152,298
151,487	-3,176	306,473	152,029
152,502	-3,031	306,200	152,031
153,516	-3,067	306,042	151,902
154,531	-3,133	305,770	151,685
155,546	-3,150	305,587	151,562
156,560	-3,195	305,437	151,428
157,575	-3,044	305,007	151,358
158,589	-3,133	304,904	151,201
159,604	-3,343	304,828	150,933
160,619	-3,229	304,597	150,923
161,633	-3,085	304,327	150,924
162,648	-3,190	304,264	150,770
163,662	-3,113	303,971	150,692
164,677	-3,233	303,841	150,489
165,692	-3,140	303,536	150,421
166,706	-3,135	303,335	150,313
167,721	-3,053	303,237	150,336
168,735	-3,034	302,895	150,172
169,750	-3,117	302,880	150,066
170,764	-2,935	302,581	150,092
171,779	-2,985	302,512	149,993
172,794	-3,005	302,263	149,836
173,808	-3,282	302,036	149,426
174,823	-3,376	301,573	149,087
175,837	-3,578	301,442	148,803
176,852	-3,222	301,280	149,073
177,867	-3,068	301,286	149,220
178,881	-3,173	301,009	148,962
179,896	-2,952	300,736	149,039
180,910	-3,059	300,723	148,911
181,925	-2,817	300,338	148,953
182,940	-2,919	300,230	148,782
183,954	-3,171	300,200	148,498
184,969	-3,084	299,927	148,438
185,983	-2,909	299,581	148,431
186,998	-3,047	299,461	148,218
188,013	-2,965	299,171	148,145
189,027	-3,017	299,068	148,028
190,042	-2,887	298,882	148,054
191,056	-2,838	298,775	148,037
192,071	-2,975	298,450	147,725
193,086	-2,957	298,324	147,667
194,100	-2,866	298,030	147,601
195,115	-3,107	297,686	147,175
196,129	-3,051	297,457	147,105
197,144	-2,941	297,360	147,153
198,159	-3,011	297,154	146,969
199,173	-2,930	297,010	146,966
200,188	-2,891	296,779	146,877
201,202	-3,112	296,487	146,498
202,217	-3,374	296,085	146,024
203,232	-3,360	295,906	145,937
204,246	-3,186	295,913	146,101
205,261	-3,082	295,683	146,079
206,275	-3,071	295,536	146,004
207,290	-3,006	295,363	145,970
208,304	-3,092	295,139	145,761
209,319	-3,051	295,056	145,748
210,334	-3,162	294,878	145,536
211,348	-3,095	294,613	145,459
212,363	-2,853	294,326	145,545
213,377	-2,929	294,073	145,332
214,392	-3,178	293,907	144,990
215,407	-3,355	293,776	144,736
216,421	-3,259	293,373	144,620
217,436	-3,062	293,197	144,715
218,450	-3,384	293,200	144,385
219,465	-3,340	293,035	144,335
220,480	-3,042	292,648	144,425
221,494	-3,086	292,567	144,330
222,509	-3,257	292,493	144,111
223,523	-3,151	292,288	144,102
224,538	-3,145	292,055	143,980
225,553	-2,989	291,976	144,082
226,567	-3,009	291,699	143,913
227,582	-2,915	291,504	143,896
228,596	-3,068	291,492	143,726
229,611	-2,933	291,115	143,660
230,626	-3,183	291,009	143,350
231,640	-3,128	290,677	143,228
232,655	-3,500	290,357	142,693
233,669	-3,660	290,156	142,424
234,684	-3,236	289,811	142,657
235,699	-3,294	289,720	142,543
236,713	-3,419	289,690	142,393
237,728	-3,283	289,527	142,433
238,742	-3,302	289,473	142,375
239,757	-3,129	289,106	142,351
240,772	-3,131	288,973	142,271
241,786	-3,188	288,853	142,143
242,801	-3,366	288,618	141,842
243,815	-3,142	288,386	141,933
244,830	-3,033	288,271	141,970
245,844	-3,199	287,933	141,630
246,859	-3,118	287,780	141,620
247,874	-3,146	287,556	141,470
248,888	-3,065	287,382	141,450
249,903	-2,993	287,376	141,504
250,917	-3,000	287,264	141,429
251,932	-2,843	287,153	141,514
252,947	-2,086	287,187	142,251
253,961	-2,355	286,686	141,730
254,976	-1,811	287,353	142,572
255,990	0,965	287,916	145,526
257,005	1,813	288,082	146,417
258,020	2,922	288,463	147,670
259,034	3,457	288,373	148,128
260,049	3,434	288,157	147,982
261,063	3,178	287,867	147,573
262,078	3,225	287,885	147,614
263,093	3,871	287,763	148,161
264,107	3,894	287,642	148,107
265,122	4,040	287,512	148,168
266,136	4,075	287,525	148,195
267,151	4,102	287,162	148,021
268,166	3,917	286,946	147,719
269,180	3,916	286,762	147,610
270,195	3,931	286,695	147,576
271,209	3,922	286,484	147,446
272,224	3,747	286,136	147,086
273,239	3,685	286,056	146,973
274,253	3,719	285,654	146,786
275,268	3,835	285,697	146,906
276,282	3,951	285,456	146,879
277,297	4,023	285,125	146,764
278,312	4,304	285,262	147,090
279,326	4,196	285,121	146,902
280,341	3,866	284,758	146,387
281,355	3,931	284,449	146,276
282,370	3,677	284,262	145,927
283,384	3,743	284,239	145,964
284,399	3,914	284,006	145,994
285,414	3,975	283,821	145,944
286,428	3,942	283,550	145,760
287,443	3,582	283,300	145,278
288,457	3,276	283,211	144,929
289,472	3,397	283,108	144,978
290,487	3,584	282,664	144,915
291,501	3,394	282,500	144,638
292,516	3,156	282,156	144,225
293,530	3,223	282,168	144,281
294,545	3,308	282,183	144,356
295,560	3,612	281,990	144,531
296,574	3,487	281,810	144,308
297,589	3,494	281,605	144,197
298,603	3,960	281,422	144,528
299,618	3,801	281,264	144,285
300,633	3,752	281,022	144,102
301,647	3,830	280,824	144,060
302,662	3,744	280,683	143,894
303,676	3,437	280,515	143,509
304,691	3,194	280,119	143,066
305,706	3,084	279,990	142,884
306,720	3,063	279,778	142,744
307,735	3,013	279,517	142,551
308,749	3,342	279,402	142,786
309,764	3,348	279,356	142,756
310,779	3,303	279,132	142,587
311,793	3,104	278,837	142,238
312,808	3,239	278,646	142,253
313,822	3,143	278,562	142,108
314,837	2,980	278,378	141,851
315,852	2,937	278,151	141,683
316,866	3,196	277,798	141,730
317,881	3,293	277,747	141,781
318,895	3,161	277,603	141,573
319,910	3,030	277,437	141,355
320,925	2,963	277,177	141,148
321,939	3,355	276,908	141,360
322,954	3,406	276,869	141,374
323,968	3,333	276,799	141,259
324,983	3,431	276,625	141,248
325,997	3,702	276,430	141,385
327,012	3,525	276,401	141,195
328,027	3,387	276,168	140,936
329,041	3,361	275,942	140,784
330,056	3,393	275,873	140,765
331,070	3,302	275,619	140,541
332,085	3,269	275,421	140,396
333,100	3,590	275,139	140,534
334,114	3,301	274,909	140,140
335,129	3,163	274,677	139,883
336,143	3,342	274,712	140,052
337,158	3,630	274,484	140,186
338,173	3,390	274,416	139,920
339,187	3,193	274,113	139,574
340,202	3,160	273,984	139,465
341,216	3,508	273,877	139,716
342,231	3,802	273,721	139,891
343,246	3,413	273,478	139,400
344,260	3,380	273,348	139,291
345,275	3,549	273,310	139,414
346,289	3,784	273,208	139,562
347,304	3,785	272,935	139,412
348,319	3,460	272,773	139,021
349,333	3,464	272,472	138,860
350,348	3,878	272,294	139,131
351,362	3,716	272,337	138,994
352,377	3,700	272,138	138,866
353,392	3,728	272,046	138,831
354,406	3,905	271,784	138,846
355,421	192,212	1329,153	1407,603
356,435	155,305	1458,066	1407,713
