DTS Sentinel unit serial number:	SN410029Multiplexer serial number:	ORYXHardware model number:	OX2-SRSoftware version number:	ORYX F/W v4,00 Oryx Data Collector v3.7.2.0data status	okinstallation	B4 Nyhavnadifferential loss correction	single-endedforward channel	channel 2reverse channel	N/Adate	2023/12/16time	12:55:13forward acquisition time	300,00reverse acquisition time	0,00gamma	499,1914k internal	0,3127k external	0,3127temperature offset calibration	1,0000default loss term (dB/km)	0,3820temperature slope calibration	1,0000multiplexer offset coefficient	1,0000multiplexer slope coefficient	1,0000fibre end	0,00T internal ref (°C)	24,36T ext. ref 1 (°C)	10,81T ext. ref 2 (°C)	10,93length (m)	temperature (°C)	Stokes	anti-Stokes-744,400	34,904	0,012	-0,008
-743,385	310,187	-0,072	0,101
-742,371	800,000	-0,017	0,042
-741,356	159,224	-0,110	0,114
-740,342	414,479	0,062	-0,099
-739,327	2,487	-0,229	0,123
-738,312	-91,635	-0,039	-0,008
-737,298	88,496	-0,150	0,124
-736,283	-34,143	0,116	0,047
-735,269	20,738	-0,333	0,200
-734,254	189,480	0,052	-0,058
-733,239	-113,562	-0,281	-0,041
-732,225	-19,022	0,097	-0,045
-731,210	-84,543	0,058	-0,013
-730,196	800,000	-0,040	0,117
-729,181	-109,533	0,082	-0,013
-728,167	64,375	-0,086	-0,064
-727,152	-200,000	-0,031	-0,111
-726,137	-200,000	0,013	-0,091
-725,123	-75,222	-0,130	0,034
-724,108	497,242	-0,045	-0,078
-723,094	322,834	-0,068	-0,097
-722,079	-129,609	-0,096	0,010
-721,064	-4,462	-0,025	0,013
-720,050	395,005	-0,066	-0,103
-719,035	687,349	0,027	-0,054
-718,021	730,745	0,027	0,054
-717,006	144,194	0,003	0,003
-715,991	-200,000	-0,023	0,124
-714,977	182,320	-0,067	-0,073
-713,962	23,851	-0,033	0,020
-712,948	800,000	0,063	0,206
-711,933	-18,951	-0,112	-0,052
-710,918	-50,203	-0,038	-0,013
-709,904	218,839	-0,060	0,071
-708,889	354,573	0,054	-0,080
-707,875	68,147	-0,093	-0,071
-706,860	-129,859	-0,150	-0,015
-705,845	299,917	0,036	-0,050
-704,831	-167,528	0,038	-0,001
-703,816	82,077	-0,047	0,038
-702,802	-159,063	-0,126	-0,005
-701,787	575,849	-0,072	0,131
-700,772	800,000	-0,060	-0,152
-699,758	-200,000	-0,007	0,109
-698,743	-114,276	0,069	-0,010
-697,729	66,368	0,113	0,085
-696,714	-200,000	0,000	0,051
-695,699	-77,542	-0,037	-0,009
-694,685	-200,000	-0,008	-0,136
-693,670	-200,000	0,014	0,050
-692,656	139,733	0,111	0,108
-691,641	-15,022	-0,039	0,019
-690,627	800,000	0,031	-0,078
-689,612	-200,000	0,033	-0,111
-688,597	-200,000	0,010	-0,112
-687,583	40,390	-0,095	0,063
-686,568	332,940	0,048	0,069
-685,554	633,703	0,039	0,075
-684,539	129,126	0,129	-0,123
-683,524	-63,550	0,084	0,025
-682,510	-200,000	0,029	0,150
-681,495	800,000	0,006	-0,012
-680,481	-200,000	0,018	-0,083
-679,466	800,000	-0,058	-0,159
-678,451	800,000	-0,027	-0,064
-677,437	-200,000	0,017	0,098
-676,422	-84,218	-0,015	-0,004
-675,408	-45,363	0,101	0,037
-674,393	-200,000	0,004	-0,018
-673,378	-1,580	0,111	-0,058
-672,364	-86,471	-0,075	-0,017
-671,349	800,000	-0,046	-0,107
-670,335	150,689	0,069	-0,070
-669,320	800,000	-0,004	0,012
-668,305	800,000	-0,013	-0,038
-667,291	552,421	0,125	0,223
-666,276	-105,560	-0,048	0,008
-665,262	31,157	0,058	0,037
-664,247	195,195	-0,021	0,024
-663,232	-200,000	0,002	0,028
-662,218	-61,084	-0,127	0,039
-661,203	-45,282	0,032	-0,012
-660,189	229,957	0,034	-0,042
-659,174	227,799	-0,089	-0,108
-658,159	112,326	0,028	-0,025
-657,145	366,631	-0,092	-0,138
-656,130	-200,000	0,005	-0,117
-655,116	114,096	-0,106	-0,096
-654,101	-67,481	-0,110	-0,032
-653,086	-181,999	-0,106	0,001
-652,072	-200,000	-0,001	-0,036
-651,057	270,973	-0,040	-0,052
-650,043	169,979	-0,023	-0,024
-649,028	-200,000	-0,015	0,052
-648,014	-112,813	0,091	-0,013
-646,999	-200,000	-0,012	0,058
-645,984	-41,999	0,060	0,023
-644,970	-79,269	0,042	0,010
-643,955	800,000	0,022	-0,059
-642,941	567,940	-0,050	-0,090
-641,926	560,244	0,028	-0,051
-640,911	117,539	0,015	-0,013
-639,897	521,960	-0,040	0,070
-638,882	-200,000	0,012	0,050
-637,868	277,170	-0,091	-0,121
-636,853	-106,960	0,097	0,016
-635,838	50,153	-0,070	-0,049
-634,824	-200,000	0,004	-0,021
-633,809	-200,000	-0,026	0,137
-632,795	800,000	-0,100	0,242
-631,780	347,317	0,041	0,060
-630,765	-200,000	-0,005	-0,099
-629,751	-200,000	-0,003	0,023
-628,736	31,940	-0,182	-0,116
-627,722	257,577	-0,057	-0,073
-626,707	133,685	0,098	-0,094
-625,692	78,762	0,020	-0,016
-624,678	-200,000	0,005	0,040
-623,663	800,000	-0,014	-0,033
-622,649	255,808	-0,100	0,127
-621,634	-16,712	-0,059	-0,027
-620,619	52,946	-0,030	0,021
-619,605	-156,803	0,118	0,005
-618,590	308,552	0,110	0,153
-617,576	273,376	0,108	-0,141
-616,561	-200,000	0,024	-0,084
-615,546	608,693	-0,063	-0,118
-614,532	112,328	-0,065	-0,058
-613,517	-200,000	0,006	-0,124
-612,503	800,000	-0,011	-0,030
-611,488	-8,061	0,190	-0,094
-610,474	-64,387	0,141	-0,042
-609,459	175,949	0,013	0,013
-608,444	198,913	0,045	-0,051
-607,430	316,256	0,072	-0,101
-606,415	-101,143	0,042	-0,008
-605,401	-23,676	-0,104	0,046
-604,386	800,000	0,045	0,105
-603,371	-7,912	0,044	-0,022
-602,357	-200,000	0,027	0,130
-601,342	298,774	-0,043	0,058
-600,328	-200,000	-0,011	-0,102
-599,313	-200,000	-0,004	-0,110
-598,298	-200,000	-0,004	-0,020
-597,284	250,674	-0,022	-0,028
-596,269	-113,839	-0,087	0,012
-595,255	744,021	-0,022	-0,045
-594,240	-14,506	0,058	-0,027
-593,225	14,153	-0,072	-0,041
-592,211	-103,390	-0,027	0,005
-591,196	20,999	-0,074	-0,044
-590,182	21,889	-0,065	-0,039
-589,167	-200,000	-0,034	0,115
-588,152	15,502	-0,157	0,091
-587,138	-19,969	-0,011	0,005
-586,123	-111,315	-0,125	-0,019
-585,109	800,000	-0,040	-0,082
-584,094	-78,414	-0,146	0,037
-583,079	330,815	0,044	0,063
-582,065	-200,000	-0,020	-0,116
-581,050	425,668	-0,016	0,025
-580,036	28,955	0,140	-0,087
-579,021	800,000	-0,040	-0,116
-578,006	-46,401	-0,198	-0,072
-576,992	42,020	-0,027	0,018
-575,977	89,915	0,084	0,070
-574,963	-200,000	0,011	0,094
-573,948	-128,009	0,035	0,004
-572,934	71,333	-0,106	-0,081
-571,919	724,841	-0,036	0,071
-570,904	55,688	-0,083	0,059
-569,890	-200,000	-0,035	-0,125
-568,875	-109,049	-0,102	-0,016
-567,861	-74,247	0,114	0,030
-566,846	-121,146	0,040	-0,005
-565,831	-200,000	-0,001	0,032
-564,817	800,000	-0,014	0,043
-563,802	-5,884	0,109	-0,055
-562,788	800,000	-0,048	-0,103
-561,773	442,090	0,092	0,150
-560,758	800,000	-0,008	-0,022
-559,744	-200,000	-0,002	-0,015
-558,729	-62,057	-0,075	0,023
-557,715	-19,538	-0,045	0,020
-556,700	-200,000	0,028	-0,121
-555,685	-127,477	0,102	-0,011
-554,671	763,822	0,051	0,103
-553,656	-200,000	-0,016	0,128
-552,642	268,771	-0,033	-0,043
-551,627	800,000	0,015	-0,037
-550,612	-200,000	-0,002	0,027
-549,598	152,098	0,050	-0,051
-548,583	-200,000	-0,057	-0,205
-547,569	-0,504	-0,110	-0,058
-546,554	-87,391	0,097	0,022
-545,539	-200,000	0,010	-0,167
-544,525	-142,885	-0,052	0,004
-543,510	-114,953	0,146	-0,020
-542,496	-200,000	-0,009	-0,089
-541,481	61,258	0,038	0,028
-540,466	20,711	-0,058	-0,035
-539,452	-200,000	-0,011	0,039
-538,437	50,024	0,092	0,064
-537,423	168,647	0,022	0,023
-536,408	-42,440	0,123	-0,046
-535,393	-200,000	0,003	0,025
-534,379	34,585	-0,096	-0,062
-533,364	-200,000	0,010	-0,049
-532,350	800,000	0,039	-0,090
-531,335	-200,000	0,001	-0,049
-530,321	46,080	-0,044	-0,030
-529,306	-132,585	-0,072	0,007
-528,291	800,000	-0,031	0,080
-527,277	165,188	-0,069	-0,072
-526,262	196,712	-0,036	-0,041
-525,248	-102,181	0,075	0,013
-524,233	-12,045	-0,097	-0,047
-523,218	-38,153	0,070	0,027
-522,204	35,261	0,126	0,081
-521,189	539,320	0,030	-0,053
-520,175	-152,118	0,066	-0,003
-519,160	800,000	-0,021	-0,059
-518,145	100,588	-0,084	-0,072
-517,131	-200,000	0,008	-0,077
-516,116	97,329	-0,068	-0,057
-515,102	46,100	0,048	-0,033
-514,087	-101,301	-0,041	-0,007
-513,072	247,737	0,019	-0,024
-512,058	23,886	-0,163	-0,099
-511,043	298,436	0,022	-0,030
-510,029	800,000	0,022	0,049
-509,014	716,549	-0,054	0,107
-507,999	112,203	-0,056	0,050
-506,985	800,000	0,015	-0,039
-505,970	-100,380	-0,111	0,020
-504,956	-200,000	0,026	-0,110
-503,941	-15,950	0,072	0,034
-502,926	-66,356	-0,080	-0,023
-501,912	379,734	-0,025	-0,037
-500,897	800,000	0,008	-0,019
-499,883	-38,554	-0,117	-0,045
-498,868	-200,000	0,007	0,092
-497,853	-86,609	0,073	0,016
-496,839	-200,000	0,046	-0,173
-495,824	-200,000	0,019	0,075
-494,810	-83,300	-0,128	0,030
-493,795	78,962	-0,044	0,034
-492,781	800,000	-0,011	-0,030
-491,766	-200,000	0,008	-0,074
-490,751	-54,669	-0,131	0,043
-489,737	56,465	-0,097	0,069
-488,722	800,000	0,018	0,042
-487,708	800,000	0,055	0,131
-486,693	-33,220	-0,108	-0,044
-485,678	-46,520	0,055	-0,020
-484,664	11,530	0,045	0,026
-483,649	210,562	-0,075	-0,087
-482,635	-95,835	-0,036	-0,007
-481,620	82,839	0,075	0,060
-480,605	213,935	-0,055	-0,065
-479,591	65,397	-0,039	0,029
-478,576	-154,880	-0,044	0,002
-477,562	295,177	0,057	-0,078
-476,547	35,856	-0,045	0,029
-475,532	415,730	0,051	0,080
-474,518	130,215	-0,088	-0,083
-473,503	115,897	0,100	0,090
-472,489	296,307	-0,073	0,098
-471,474	800,000	0,026	0,082
-470,459	-162,917	0,134	0,005
-469,445	-200,000	0,042	0,173
-468,430	678,338	0,034	0,065
-467,416	800,000	-0,066	0,158
-466,401	73,839	0,065	-0,050
-465,386	388,119	0,114	0,175
-464,372	322,813	0,091	0,128
-463,357	-200,000	-0,015	-0,067
-462,343	800,000	-0,015	0,049
-461,328	200,377	-0,077	0,087
-460,313	-49,652	-0,063	-0,022
-459,299	-116,484	-0,076	0,010
-458,284	93,312	-0,095	0,079
-457,270	-200,000	0,013	0,164
-456,255	800,000	0,013	-0,036
-455,241	-152,653	-0,074	-0,004
-454,226	-200,000	-0,013	-0,063
-453,211	800,000	-0,012	0,027
-452,197	-41,576	-0,074	-0,028
-451,182	-200,000	-0,013	-0,132
-450,168	101,356	0,018	-0,016
-449,153	-12,939	-0,015	0,007
-448,138	-148,484	-0,096	0,006
-447,124	-116,971	-0,033	-0,004
-446,109	311,760	-0,070	-0,097
-445,095	800,000	-0,019	0,060
-444,080	800,000	-0,037	0,109
-443,065	-200,000	-0,012	0,063
-442,051	513,050	0,081	0,139
-441,036	-78,549	-0,069	-0,017
-440,022	-200,000	-0,021	0,100
-439,007	670,122	0,043	0,082
-437,992	128,351	0,058	-0,054
-436,978	274,028	-0,068	-0,089
-435,963	-52,516	0,069	-0,023
-434,949	587,147	-0,007	-0,013
-433,934	-200,000	-0,014	0,080
-432,919	800,000	0,005	-0,017
-431,905	431,400	0,025	0,040
-430,890	12,022	0,023	0,013
-429,876	-200,000	0,001	-0,033
-428,861	38,627	0,050	0,033
-427,846	314,158	0,018	-0,024
-426,832	-12,778	0,057	-0,027
-425,817	-43,271	0,089	-0,033
-424,803	56,719	0,075	-0,054
-423,788	155,264	0,069	-0,070
-422,773	95,564	0,063	-0,053
-421,759	437,266	0,107	0,172
-420,744	-200,000	-0,020	-0,080
-419,730	78,630	-0,104	-0,081
-418,715	-200,000	0,021	-0,088
-417,701	91,917	0,156	-0,129
-416,686	85,958	-0,081	0,065
-415,671	35,645	-0,073	0,047
-414,657	645,380	0,052	0,097
-413,642	7,207	-0,088	0,048
-412,628	-200,000	0,017	0,056
-411,613	250,163	0,015	0,019
-410,598	-200,000	0,003	-0,168
-409,584	800,000	-0,021	-0,057
-408,569	-200,000	0,012	0,148
-407,555	800,000	0,026	0,074
-406,540	-157,951	-0,076	0,003
-405,525	191,917	0,062	0,069
-404,511	186,875	-0,075	-0,083
-403,496	237,008	0,074	-0,091
-402,482	355,694	0,089	-0,130
-401,467	800,000	0,013	-0,034
-400,452	800,000	0,010	0,027
-399,438	-142,436	-0,048	-0,003
-398,423	-109,214	0,079	0,012
-397,409	40,255	0,034	0,023
-396,394	-60,315	0,025	0,008
-395,379	-200,000	0,015	-0,065
-394,365	212,486	0,123	-0,142
-393,350	782,643	0,048	0,097
-392,336	-34,412	-0,101	0,041
-391,321	171,119	-0,028	0,029
-390,306	-114,613	-0,136	0,019
-389,292	800,000	0,064	0,139
-388,277	-44,578	0,066	-0,024
-387,263	32,066	0,076	0,048
-386,248	79,151	0,124	-0,098
-385,233	-200,000	-0,012	0,044
-384,219	-200,000	0,005	-0,046
-383,204	-105,226	-0,065	0,011
-382,190	-22,164	0,037	-0,016
-381,175	-200,000	0,036	-0,122
-380,160	329,866	-0,018	0,025
-379,146	-200,000	-0,003	-0,120
-378,131	-133,826	0,028	-0,002
-377,117	-200,000	0,006	0,163
-376,102	127,453	0,131	0,122
-375,088	800,000	0,035	0,091
-374,073	-125,556	0,133	0,015
-373,058	800,000	-0,061	0,164
-372,044	-87,382	0,039	0,009
-371,029	138,274	0,085	0,082
-370,015	-174,364	-0,104	0,002
-369,000	-60,217	-0,122	-0,038
-367,985	248,614	-0,041	-0,051
-366,971	295,230	-0,085	-0,114
-365,956	-200,000	0,013	0,112
-364,942	-180,928	0,100	0,001
-363,927	147,354	-0,026	-0,026
-362,912	-2,193	0,035	-0,018
-361,898	12,334	-0,069	-0,039
-360,883	25,819	0,064	-0,039
-359,869	534,977	0,067	-0,117
-358,854	-103,881	-0,138	-0,023
-357,839	219,755	0,071	-0,084
-356,825	111,653	0,013	0,012
-355,810	-200,000	0,002	0,087
-354,796	-182,953	0,054	0,001
-353,781	323,749	-0,072	-0,100
-352,766	81,133	0,039	0,031
-351,752	296,300	0,037	-0,049
-350,737	124,474	0,085	0,079
-349,723	361,118	-0,029	0,043
-348,708	-95,838	0,135	0,026
-347,693	-200,000	-0,002	-0,036
-346,679	37,043	-0,128	-0,083
-345,664	9,035	-0,139	-0,077
-344,650	-200,000	0,055	-0,180
-343,635	70,320	0,026	0,020
-342,620	-15,195	0,008	0,004
-341,606	-200,000	-0,012	0,056
-340,591	169,901	-0,109	-0,114
-339,577	800,000	-0,053	-0,171
-338,562	157,588	-0,083	0,084
-337,548	-140,324	-0,086	-0,006
-336,533	672,734	-0,012	0,024
-335,518	-37,890	0,110	0,043
-334,504	-79,545	0,074	-0,018
-333,489	297,223	-0,009	0,012
-332,475	287,720	-0,038	-0,051
-331,460	202,857	-0,040	0,045
-330,445	-107,856	-0,086	-0,014
-329,431	473,576	0,063	0,104
-328,416	12,551	0,083	0,047
-327,402	69,513	0,108	0,082
-326,387	800,000	-0,061	0,143
-325,372	251,887	0,119	0,148
-324,358	23,275	-0,046	0,028
-323,343	800,000	0,016	0,033
-322,329	178,607	0,065	0,070
-321,314	196,876	-0,012	0,013
-320,299	-100,792	-0,101	0,018
-319,285	800,000	-0,014	-0,034
-318,270	532,085	-0,015	-0,027
-317,256	99,529	0,063	-0,053
-316,241	800,000	0,063	-0,140
-315,226	3,595	0,097	-0,052
-314,212	800,000	0,031	0,084
-313,197	800,000	-0,049	0,102
-312,183	-200,000	0,010	0,065
-311,168	77,090	-0,026	0,020
-310,153	-200,000	0,011	-0,048
-309,139	-200,000	0,005	-0,028
-308,124	-16,714	-0,020	-0,009
-307,110	47,134	-0,063	0,043
-306,095	475,533	0,028	-0,046
-305,080	800,000	0,045	0,121
-304,066	800,000	-0,061	0,143
-303,051	-46,634	0,021	0,007
-302,037	-200,000	-0,003	-0,098
-301,022	167,392	0,066	0,069
-300,008	754,918	0,079	0,157
-298,993	-126,745	0,123	0,013
-297,978	45,222	0,156	-0,105
-296,964	-153,128	-0,023	0,001
-295,949	41,661	-0,138	-0,091
-294,935	-200,000	0,024	-0,122
-293,920	800,000	-0,020	-0,060
-292,905	119,963	0,094	-0,085
-291,891	13,678	0,066	0,037
-290,876	-200,000	0,017	0,061
-289,862	-45,651	-0,040	0,015
-288,847	-200,000	-0,013	-0,086
-287,832	-21,459	-0,025	0,011
-286,818	-124,542	0,107	-0,012
-285,803	800,000	-0,043	0,112
-284,789	800,000	0,054	0,133
-283,774	-10,682	-0,104	0,050
-282,759	-200,000	0,044	-0,204
-281,745	-200,000	0,022	-0,107
-280,730	-28,639	0,048	0,020
-279,716	-139,139	-0,153	0,012
-278,701	800,000	0,065	0,146
-277,686	248,681	-0,049	0,061
-276,672	-200,000	0,008	0,058
-275,657	250,993	-0,018	-0,023
-274,643	127,621	0,047	-0,044
-273,628	-5,156	-0,081	-0,041
-272,613	223,526	-0,031	0,036
-271,599	800,000	-0,035	0,085
-270,584	49,595	0,179	0,123
-269,570	-200,000	0,034	0,236
-268,555	-50,482	0,092	0,032
-267,540	-42,291	0,062	0,023
-266,526	-200,000	-0,007	-0,042
-265,511	353,885	0,105	-0,153
-264,497	371,565	-0,059	-0,088
-263,482	-200,000	-0,010	0,033
-262,467	24,038	0,121	0,073
-261,453	-200,000	0,005	0,025
-260,438	800,000	-0,020	0,055
-259,424	800,000	0,031	-0,064
-258,409	800,000	-0,061	-0,148
-257,395	660,422	0,078	-0,147
-256,380	-86,568	0,075	0,017
-255,365	800,000	-0,011	0,034
-254,351	-2,709	-0,049	-0,025
-253,336	148,435	-0,115	-0,114
-252,322	21,512	0,083	-0,049
-251,307	-162,591	-0,075	-0,003
-250,292	-200,000	0,021	0,115
-249,278	800,000	-0,035	0,093
-248,263	-29,259	0,036	0,015
-247,249	-13,099	0,041	0,019
-246,234	-200,000	-0,033	0,110
-245,219	18,475	-0,084	-0,049
-244,205	-127,734	-0,075	-0,008
-243,190	-200,000	0,003	0,035
-242,176	-21,056	0,138	0,061
-241,161	-200,000	0,001	0,090
-240,146	289,989	-0,077	0,102
-239,132	-68,759	-0,063	0,018
-238,117	-188,777	-0,151	-0,001
-237,103	34,427	-0,141	-0,090
-236,088	16,424	-0,108	-0,062
-235,073	-9,707	-0,093	0,045
-234,059	260,904	0,032	-0,041
-233,044	800,000	-0,021	-0,049
-232,030	800,000	-0,016	0,035
-231,015	2,471	-0,096	-0,051
-230,000	-200,000	-0,003	-0,072
-228,986	117,197	0,045	-0,040
-227,971	-137,322	0,028	-0,002
-226,957	447,655	-0,070	0,112
-225,942	-130,949	0,100	-0,010
-224,927	-125,400	-0,091	0,010
-223,913	-25,896	0,039	-0,017
-222,898	132,830	-0,013	0,012
-221,884	16,574	0,054	0,031
-220,869	225,333	0,071	-0,084
-219,855	-51,753	0,027	-0,009
-218,840	47,472	-0,113	0,077
-217,825	612,846	-0,113	0,207
-216,811	121,325	0,052	-0,047
-215,796	-200,000	0,017	-0,070
-214,782	-110,846	0,100	-0,015
-213,767	800,000	0,034	-0,071
-212,752	84,590	-0,066	-0,053
-211,738	-200,000	-0,014	-0,080
-210,723	293,955	0,101	0,135
-209,709	275,154	-0,057	0,074
-208,694	800,000	0,029	-0,061
-207,679	-2,962	-0,150	0,076
-206,665	97,331	-0,054	-0,045
-205,650	-200,000	0,014	-0,098
-204,636	0,741	0,095	-0,050
-203,621	-1,381	-0,035	-0,018
-202,606	-20,011	0,174	-0,078
-201,592	-187,807	-0,161	0,001
-200,577	-23,903	0,044	-0,019
-199,563	-19,822	0,054	0,024
-198,548	-64,335	0,135	0,040
-197,533	573,717	0,067	0,119
-196,519	686,791	-0,018	-0,034
-195,504	740,744	0,049	0,097
-194,490	-200,000	-0,026	0,128
-193,475	-200,000	-0,038	-0,132
-192,460	13,059	-0,094	0,053
-191,446	800,000	-0,010	0,022
-190,431	-190,956	-0,052	-0,000
-189,417	-171,494	0,081	0,002
-188,402	4,246	0,058	0,031
-187,387	-25,133	0,024	-0,010
-186,373	-116,181	-0,060	0,008
-185,358	800,000	-0,050	-0,131
-184,344	-200,000	0,062	0,000
-183,329	627,121	0,054	0,100
-182,315	-200,000	0,001	0,006
-181,300	247,639	-0,028	0,035
-180,285	231,398	0,087	-0,104
-179,271	210,850	-0,061	-0,069
-178,256	53,093	-0,013	-0,009
-177,242	75,802	-0,105	0,081
-176,227	84,055	-0,059	-0,047
-175,212	-46,261	0,090	-0,032
-174,198	800,000	0,055	-0,141
-173,183	-200,000	0,012	-0,069
-172,169	-64,498	0,034	0,010
-171,154	436,527	-0,088	0,139
-170,139	-200,000	0,026	-0,118
-169,125	609,856	-0,049	0,089
-168,110	91,057	0,062	0,051
-167,096	800,000	0,020	-0,052
-166,081	334,107	-0,069	-0,097
-165,066	800,000	-0,034	-0,091
-164,052	800,000	0,059	-0,140
-163,037	-24,382	-0,124	0,054
-162,023	-73,690	0,108	0,028
-161,008	215,113	-0,032	0,037
-159,993	209,279	0,116	0,132
-158,979	-157,485	-0,071	-0,003
-157,964	117,807	-0,089	-0,080
-156,950	-14,227	-0,082	-0,038
-155,935	-62,843	0,178	0,053
-154,920	10,598	-0,026	0,014
-153,906	-200,000	0,006	0,146
-152,891	-200,000	0,042	0,141
-151,877	-200,000	0,027	-0,116
-150,862	-135,358	-0,070	0,006
-149,847	-200,000	0,040	0,142
-148,833	257,285	-0,112	-0,140
-147,818	81,574	-0,077	-0,061
-146,804	310,849	0,039	0,053
-145,789	198,740	-0,049	0,054
-144,775	800,000	-0,018	0,042
-143,760	-200,000	0,001	0,030
-142,745	-75,456	0,113	-0,029
-141,731	800,000	0,017	0,043
-140,716	-200,000	0,007	0,031
-139,702	-155,410	0,097	-0,004
-138,687	-200,000	0,015	0,086
-137,672	121,063	0,049	0,044
-136,658	231,926	-0,115	-0,137
-135,643	-200,000	-0,047	-0,219
-134,629	-200,000	0,020	0,076
-133,614	-200,000	0,011	0,083
-132,599	800,000	-0,042	0,113
-131,585	246,253	0,056	-0,069
-130,570	800,000	0,036	0,078
-129,556	-14,488	0,060	0,028
-128,541	-200,000	-0,006	-0,030
-127,526	800,000	-0,007	-0,016
-126,512	800,000	-0,022	0,063
-125,497	-53,211	0,081	-0,027
-124,483	-200,000	-0,015	0,098
-123,468	42,134	0,117	0,077
-122,453	-151,081	0,062	0,003
-121,439	-70,390	0,024	0,007
-120,424	-200,000	-0,017	-0,096
-119,410	-132,599	0,124	-0,011
-118,395	-200,000	-0,020	0,098
-117,380	4,543	0,018	-0,010
-116,366	747,207	0,023	0,046
-115,351	96,689	-0,115	-0,096
-114,337	-117,619	0,094	-0,012
-113,322	177,331	0,040	-0,043
-112,307	-83,281	0,068	0,016
-111,293	-57,075	0,057	-0,018
-110,278	800,000	0,050	0,141
-109,264	-0,744	-0,153	0,079
-108,249	-112,236	-0,145	-0,021
-107,234	563,912	0,030	0,053
-106,220	-200,000	-0,004	-0,030
-105,205	-149,796	-0,138	0,008
-104,191	41,860	0,083	0,055
-103,176	-76,514	-0,036	0,009
-102,162	800,000	0,035	-0,093
-101,147	43,738	0,020	0,013
-100,132	-42,068	-0,124	0,046
-99,118	82,295	-0,056	0,044
-98,103	9,034	0,074	0,040
-97,089	-55,522	0,111	-0,036
-96,074	98,333	0,096	0,081
-95,059	186,429	0,038	0,041
-94,045	-0,092	-0,038	0,020
-93,030	800,000	-0,066	-0,144
-92,016	51,931	0,094	-0,065
-91,001	185,449	0,055	-0,059
-89,986	-200,000	0,004	0,075
-88,972	287,980	0,089	0,117
-87,957	-126,154	0,137	-0,015
-86,943	445,791	-0,036	0,057
-85,928	-11,702	-0,033	0,016
-84,913	-200,000	0,031	-0,159
-83,899	-200,000	-0,007	-0,048
-82,884	752,979	-0,030	-0,059
-81,870	-43,012	-0,098	-0,036
-80,855	97,659	0,056	-0,047
-79,840	305,065	-0,056	-0,076
-78,826	-200,000	-0,020	-0,092
-77,811	-152,806	-0,064	0,003
-76,797	-200,000	-0,006	0,069
-75,782	-61,169	0,031	0,009
-74,767	3,992	0,067	-0,035
-73,753	-200,000	0,018	0,060
-72,738	721,449	0,038	0,074
-71,724	-2,049	-0,118	-0,060
-70,709	-64,446	-0,067	0,020
-69,694	415,635	-0,051	-0,079
-68,680	645,802	0,079	0,147
-67,665	473,781	0,023	-0,038
-66,651	139,428	0,089	0,085
-65,636	-40,728	0,020	-0,007
-64,622	223,249	0,016	0,018
-63,607	-200,000	-0,022	-0,115
-62,592	-78,634	0,038	0,009
-61,578	60,403	0,025	0,018
-60,563	-50,766	0,091	0,031
-59,549	-64,232	-0,024	0,007
-58,534	-110,676	-1,173	0,174
-57,519	449,234	-0,985	-1,579
-56,505	-200,000	-0,779	-4,286
-55,490	137,665	0,551	-0,523
-54,476	800,000	4,842	11,400
-53,461	-200,000	12,170	231,015
-52,446	-200,000	679,051	2207,393
-51,432	590,235	1623,153	2913,227
-50,417	126,229	1647,072	1509,999
-49,403	80,261	1303,319	1015,527
-48,388	41,924	1036,759	680,237
-47,373	26,252	992,949	599,618
-46,359	25,341	982,849	590,484
-45,344	24,604	978,667	585,521
-44,330	24,469	977,250	584,206
-43,315	24,464	975,471	583,102
-42,300	24,374	974,656	582,295
-41,286	24,384	973,767	581,774
-40,271	24,423	972,810	581,308
-39,257	24,409	971,706	580,577
-38,242	24,362	970,846	579,887
-37,227	24,383	970,183	579,536
-36,213	24,405	969,019	578,891
-35,198	24,289	968,258	578,034
-34,184	24,369	967,504	577,823
-33,169	24,329	966,530	577,088
-32,154	24,353	965,647	576,615
-31,140	24,377	964,703	576,107
-30,125	24,432	964,113	575,911
-29,111	24,431	962,983	575,210
-28,096	24,427	962,254	574,739
-27,082	24,436	961,723	574,429
-26,067	24,419	961,026	573,934
-25,052	24,370	960,333	573,337
-24,038	24,391	959,459	572,861
-23,023	24,362	958,945	572,439
-22,009	24,413	958,122	572,089
-20,994	24,462	957,508	571,858
-19,979	24,396	957,091	571,371
-18,965	24,423	956,288	570,959
-17,950	24,456	955,450	570,542
-16,936	24,376	954,926	569,949
-15,921	24,349	954,113	569,353
-14,906	24,258	953,522	568,685
-13,892	24,218	952,947	568,191
-12,877	24,237	952,145	567,753
-11,863	24,260	951,538	567,443
-10,848	24,281	950,880	567,095
-9,833	24,416	950,455	567,251
-8,819	24,324	949,964	566,639
-7,804	24,235	949,370	565,980
-6,790	24,314	948,680	565,799
-5,775	24,317	948,134	565,458
-4,760	24,264	947,609	564,954
-3,746	24,242	946,852	564,410
-2,731	24,171	946,133	563,734
-1,717	24,116	945,413	563,107
-0,702	24,164	944,657	562,787
0,313	23,885	944,227	562,495
1,327	26,383	941,977	569,023
2,342	34,436	822,259	518,812
3,356	30,423	519,346	320,702
4,371	6,449	380,025	203,790
5,386	3,457	362,385	190,597
6,400	1,890	356,130	185,374
7,415	0,820	353,273	182,572
8,429	0,633	351,536	181,432
9,444	0,589	350,661	180,911
10,459	0,585	349,951	180,524
11,473	0,629	349,187	180,167
12,488	0,857	348,872	180,262
13,502	0,768	348,228	179,807
14,517	0,619	347,784	179,383
15,531	0,259	347,020	178,544
16,546	0,352	346,625	178,435
17,561	0,275	346,037	178,026
18,575	0,298	345,828	177,930
19,590	0,143	345,375	177,496
20,604	0,353	345,012	177,542
21,619	0,183	344,776	177,204
22,634	0,259	344,222	176,993
23,648	0,210	343,916	176,762
24,663	0,220	343,743	176,670
25,677	0,323	343,249	176,521
26,692	0,252	342,852	176,218
27,707	0,266	342,605	176,092
28,721	0,260	342,282	175,903
29,736	0,219	342,180	175,787
30,750	0,226	341,701	175,534
31,765	0,224	341,524	175,424
32,780	0,192	341,190	175,199
33,794	0,228	341,020	175,138
34,809	0,262	340,537	174,916
35,823	0,149	340,362	174,677
36,838	0,231	340,108	174,627
37,853	0,180	339,688	174,336
38,867	0,096	339,606	174,181
39,882	0,079	339,217	173,946
40,896	0,172	338,835	173,843
41,911	0,106	338,705	173,684
42,926	0,132	338,337	173,510
43,940	0,156	337,895	173,296
44,955	0,060	337,793	173,117
45,969	0,031	337,543	172,940
46,984	-0,082	337,114	172,574
47,999	-0,364	336,831	172,088
49,013	-0,421	336,578	171,877
50,028	-0,536	336,270	171,573
51,042	-0,497	335,749	171,337
52,057	-0,542	335,588	171,188
53,071	-0,542	335,435	171,094
54,086	-0,535	335,326	171,031
55,101	-0,216	334,919	171,174
56,115	-0,285	334,871	171,056
57,130	0,265	334,678	171,571
58,144	0,423	334,516	171,654
59,159	0,482	334,384	171,639
60,174	0,401	334,063	171,366
61,188	0,448	333,857	171,299
62,203	0,255	333,482	170,872
63,217	0,318	333,194	170,780
64,232	0,352	332,991	170,699
65,247	0,428	332,856	170,702
66,261	0,434	332,488	170,504
67,276	0,199	332,124	170,036
68,290	-0,016	331,713	169,566
69,305	-0,059	331,575	169,432
70,320	0,036	331,258	169,362
71,334	-0,049	331,260	169,252
72,349	0,486	330,938	169,678
73,363	0,369	330,812	169,465
74,378	0,570	330,437	169,485
75,393	0,455	330,123	169,180
76,407	0,345	329,897	168,924
77,422	0,360	329,678	168,814
78,436	0,283	329,529	168,636
79,451	0,482	329,067	168,609
80,466	0,141	329,018	168,185
81,480	0,047	328,543	167,821
82,495	0,003	328,261	167,614
83,509	-0,065	328,075	167,427
84,524	-0,059	327,800	167,279
85,539	-0,018	327,439	167,125
86,553	-0,213	327,330	166,837
87,568	-0,061	326,951	166,799
88,582	0,075	326,735	166,826
89,597	0,028	326,519	166,648
90,611	0,239	326,579	166,898
91,626	0,324	326,401	166,887
92,641	0,152	326,127	166,540
93,655	0,081	325,752	166,256
94,670	0,025	325,477	166,039
95,684	0,168	325,262	166,073
96,699	-0,057	325,189	165,771
97,714	0,203	324,813	165,853
98,728	-0,132	324,490	165,301
99,743	-0,271	324,213	164,992
100,757	-0,105	323,884	164,994
101,772	-0,028	323,878	165,061
102,787	-0,048	323,686	164,926
103,801	0,067	323,414	164,900
104,816	0,166	323,206	164,888
105,830	0,283	323,068	164,931
106,845	0,369	322,861	164,906
107,860	0,098	322,766	164,544
108,874	0,303	322,337	164,536
109,889	0,140	322,073	164,208
110,903	0,071	321,853	164,006
111,918	0,040	321,660	163,859
112,933	0,003	321,395	163,668
113,947	0,129	321,203	163,695
114,962	0,089	320,912	163,487
115,976	0,232	320,706	163,524
116,991	0,113	320,544	163,297
118,006	0,260	320,226	163,281
119,020	0,196	320,224	163,195
120,035	0,416	319,929	163,271
121,049	0,396	319,708	163,121
122,064	0,113	319,564	162,725
123,079	0,130	319,217	162,553
124,093	0,053	319,009	162,349
125,108	0,068	318,626	162,155
126,122	-0,260	318,274	161,607
127,137	-0,043	317,820	161,597
128,151	-0,280	317,944	161,388
129,166	-0,050	317,802	161,551
130,181	-0,016	317,394	161,366
131,195	-0,311	317,250	160,959
132,210	-0,051	317,065	161,132
133,224	0,289	316,930	161,416
134,239	0,277	316,696	161,269
135,254	0,328	316,417	161,168
136,268	0,149	316,069	160,784
137,283	-0,032	315,688	160,381
138,297	-0,120	315,521	160,188
139,312	-0,160	315,380	160,059
140,327	0,119	315,324	160,315
141,341	0,345	315,249	160,505
142,356	0,569	314,994	160,600
143,370	0,615	314,800	160,536
144,385	0,700	314,713	160,568
145,400	0,559	314,307	160,196
146,414	0,557	314,018	160,033
147,429	0,604	314,051	160,086
148,443	0,631	313,711	159,927
149,458	0,625	313,597	159,847
150,473	0,669	313,281	159,720
151,487	0,545	313,175	159,519
152,502	0,502	312,976	159,358
153,516	0,498	312,680	159,188
154,531	0,619	312,418	159,169
155,546	0,507	312,152	158,901
156,560	0,560	311,979	158,855
157,575	0,407	311,741	158,558
158,589	0,519	311,540	158,560
159,604	0,511	311,337	158,434
160,619	0,393	311,151	158,200
161,633	0,436	310,835	158,071
162,648	0,447	310,664	157,982
163,662	0,673	310,488	158,116
164,677	0,506	310,373	157,867
165,692	0,604	309,966	157,749
166,706	0,483	309,992	157,622
167,721	0,387	309,778	157,397
168,735	0,512	309,556	157,402
169,750	0,650	309,448	157,478
170,764	0,753	309,304	157,498
171,779	0,854	309,096	157,485
172,794	0,707	308,869	157,201
173,808	0,568	308,671	156,941
174,823	0,129	308,156	156,207
175,837	0,026	307,956	155,983
176,852	0,579	307,830	156,483
177,867	0,786	307,947	156,744
178,881	0,659	307,607	156,425
179,896	0,764	307,436	156,434
180,910	0,909	307,155	156,427
181,925	0,662	306,967	156,061
182,940	0,776	306,840	156,100
183,954	0,742	306,686	155,973
184,969	0,624	306,352	155,667
185,983	0,511	306,120	155,418
186,998	0,593	305,969	155,412
188,013	0,671	305,811	155,399
189,027	0,755	305,515	155,321
190,042	0,650	305,441	155,162
191,056	0,892	305,144	155,247
192,071	0,840	305,063	155,138
193,086	0,851	304,954	155,080
194,100	0,708	304,890	154,886
195,115	0,760	304,312	154,632
196,129	0,742	304,047	154,465
197,144	0,758	304,036	154,462
198,159	1,018	303,631	154,509
199,173	0,819	303,563	154,257
200,188	0,936	303,268	154,213
201,202	0,762	302,965	153,867
202,217	0,196	302,567	153,073
203,232	0,098	302,459	152,905
204,246	0,537	302,260	153,239
205,261	0,867	302,163	153,512
206,275	0,737	302,072	153,320
207,290	0,694	301,799	153,123
208,304	0,796	301,610	153,118
209,319	1,001	301,484	153,249
210,334	0,812	301,276	152,938
211,348	0,791	301,127	152,827
212,363	0,809	300,814	152,673
213,377	0,867	300,485	152,551
214,392	0,859	300,445	152,509
215,407	0,533	300,209	152,045
216,421	0,365	299,979	151,745
217,436	0,702	299,576	151,868
218,450	0,569	299,486	151,674
219,465	0,673	299,412	151,729
220,480	0,723	299,280	151,699
221,494	0,720	299,060	151,571
222,509	0,663	298,720	151,327
223,523	0,905	298,652	151,523
224,538	0,859	298,567	151,420
225,553	0,816	298,369	151,263
226,567	0,950	298,269	151,334
227,582	0,967	297,971	151,186
228,596	0,892	297,853	151,037
229,611	0,975	297,776	151,068
230,626	0,854	297,483	150,785
231,640	0,545	296,928	150,181
232,655	-0,028	296,567	149,412
233,669	-0,212	296,450	149,155
234,684	-0,101	296,283	149,170
235,699	0,081	296,165	149,278
236,713	0,267	296,050	149,392
237,728	0,375	295,895	149,409
238,742	0,582	295,646	149,476
239,757	0,815	295,517	149,630
240,772	0,827	295,429	149,584
241,786	0,943	295,075	149,506
242,801	0,460	295,037	148,993
243,815	0,586	294,672	148,921
244,830	0,613	294,607	148,902
245,844	0,354	294,341	148,498
246,859	0,404	294,196	148,460
247,874	0,470	294,058	148,443
248,888	0,594	293,667	148,354
249,903	0,741	293,744	148,526
250,917	0,935	293,681	148,672
251,932	1,069	293,427	148,663
252,947	1,673	293,509	149,287
253,961	1,879	293,440	149,442
254,976	2,262	293,535	149,854
255,990	3,237	293,604	150,838
257,005	3,937	293,769	151,599
258,020	4,475	293,886	152,177
259,034	4,256	293,838	151,922
260,049	4,227	293,390	151,649
261,063	4,135	293,253	151,474
262,078	4,489	293,074	151,716
263,093	4,933	293,087	152,145
264,107	4,941	292,910	152,047
265,122	4,765	292,841	151,826
266,136	5,186	292,636	152,119
267,151	4,996	292,376	151,784
268,166	4,812	292,144	151,470
269,180	4,797	291,949	151,340
270,195	4,967	291,763	151,396
271,209	4,735	291,652	151,098
272,224	4,853	291,381	151,060
273,239	4,523	291,151	150,606
274,253	4,670	291,060	150,688
275,268	5,201	290,936	151,128
276,282	4,995	290,600	150,740
277,297	5,187	290,664	150,946
278,312	5,211	290,508	150,875
279,326	5,204	290,148	150,667
280,341	5,103	289,809	150,380
281,355	4,807	289,634	149,989
282,370	4,730	289,465	149,814
283,384	4,606	289,220	149,553
284,399	4,707	289,139	149,596
285,414	4,879	288,940	149,646
286,428	4,543	288,703	149,185
287,443	4,511	288,450	149,010
288,457	4,346	288,219	148,719
289,472	4,389	288,110	148,691
290,487	4,635	287,754	148,730
291,501	4,698	287,621	148,709
292,516	4,093	287,379	147,989
293,530	4,288	287,305	148,125
294,545	4,449	287,172	148,197
295,560	4,561	287,134	148,273
296,574	4,320	286,725	147,818
297,589	4,407	286,554	147,799
298,603	4,833	286,573	148,204
299,618	4,839	286,581	148,201
300,633	4,750	286,259	147,936
301,647	4,705	285,933	147,710
302,662	4,751	285,825	147,686
303,676	4,672	285,514	147,437
304,691	4,154	285,187	146,761
305,706	4,188	284,982	146,675
306,720	4,248	284,886	146,669
307,735	4,102	284,770	146,458
308,749	4,192	284,629	146,458
309,764	4,481	284,424	146,614
310,779	4,262	284,139	146,246
311,793	4,234	283,978	146,124
312,808	4,415	283,644	146,110
313,822	4,326	283,640	146,011
314,837	4,284	283,419	145,845
315,852	4,062	283,198	145,508
316,866	4,084	283,062	145,446
317,881	4,441	282,740	145,604
318,895	4,149	282,582	145,235
319,910	4,050	282,568	145,121
320,925	4,127	282,242	145,013
321,939	4,183	282,238	145,051
322,954	4,252	282,116	145,040
323,968	4,467	281,780	145,056
324,983	4,386	281,804	144,979
325,997	4,625	281,521	145,046
327,012	4,659	281,377	144,990
328,027	4,472	281,226	144,724
329,041	4,542	281,082	144,703
330,056	4,574	280,805	144,578
331,070	4,603	280,663	144,518
332,085	4,153	280,463	143,982
333,100	4,349	280,367	144,103
334,114	4,554	279,941	144,062
335,129	4,450	279,676	143,816
336,143	4,412	279,777	143,820
337,158	4,549	279,738	143,915
338,173	4,473	279,497	143,708
339,187	4,403	279,243	143,499
340,202	4,500	278,938	143,419
341,216	4,505	278,740	143,310
342,231	4,623	278,625	143,347
343,246	4,351	278,527	143,032
344,260	4,475	278,346	143,041
345,275	4,677	278,336	143,210
346,289	4,787	278,251	143,256
347,304	4,764	278,043	143,114
348,319	4,551	277,705	142,731
349,333	4,563	277,392	142,568
350,348	4,467	277,415	142,479
351,362	4,783	277,226	142,660
352,377	4,727	276,967	142,463
353,392	4,822	276,828	142,465
354,406	4,876	276,758	142,467
355,421	191,088	1336,831	1413,925
356,435	154,458	1466,117	1414,086
