DTS Sentinel unit serial number:	SN410029Multiplexer serial number:	ORYXHardware model number:	OX2-SRSoftware version number:	ORYX F/W v4,00 Oryx Data Collector v3.7.2.0data status	okinstallation	B4 Nyhavnadifferential loss correction	single-endedforward channel	channel 2reverse channel	N/Adate	2023/12/18time	16:20:13forward acquisition time	300,00reverse acquisition time	0,00gamma	499,1914k internal	0,3134k external	0,3134temperature offset calibration	1,0000default loss term (dB/km)	0,3820temperature slope calibration	1,0000multiplexer offset coefficient	1,0000multiplexer slope coefficient	1,0000fibre end	0,00T internal ref (°C)	19,81T ext. ref 1 (°C)	7,66T ext. ref 2 (°C)	7,78length (m)	temperature (°C)	Stokes	anti-Stokes-744,400	-64,443	0,016	-0,005
-743,385	-47,843	-0,262	0,094
-742,371	-200,000	-0,003	0,030
-741,356	89,957	-0,137	0,113
-740,342	-44,618	0,159	0,059
-739,327	-130,063	-0,232	0,023
-738,312	90,824	-0,107	-0,089
-737,298	37,166	-0,168	0,110
-736,283	326,271	0,018	0,026
-735,269	-99,042	-0,159	0,030
-734,254	800,000	0,061	-0,173
-733,239	-93,077	-0,401	-0,082
-732,225	-200,000	-0,029	-0,106
-731,210	171,895	-0,011	-0,011
-730,196	-200,000	-0,020	0,071
-729,181	-51,057	-0,055	0,019
-728,167	-200,000	0,042	-0,175
-727,152	-200,000	0,029	-0,164
-726,137	338,821	-0,078	-0,113
-725,123	641,619	-0,033	-0,062
-724,108	-79,757	-0,119	0,030
-723,094	37,949	-0,141	-0,093
-722,079	262,277	-0,058	0,075
-721,064	800,000	-0,070	-0,211
-720,050	-200,000	0,040	-0,176
-719,035	-200,000	-0,004	0,048
-718,021	-36,759	-0,176	0,070
-717,006	-45,144	0,122	-0,045
-715,991	-130,583	0,059	-0,006
-714,977	-200,000	0,025	-0,151
-713,962	-35,154	-0,083	-0,033
-712,948	800,000	-0,031	0,084
-711,933	-168,756	-0,078	-0,002
-710,918	-81,493	0,061	-0,015
-709,904	64,351	-0,081	-0,061
-708,889	-25,491	-0,018	0,008
-707,875	160,092	0,011	-0,011
-706,860	244,404	0,096	-0,120
-705,845	-200,000	0,004	0,031
-704,831	194,373	0,121	0,136
-703,816	-162,501	0,040	0,001
-702,802	-200,000	-0,022	-0,143
-701,787	-116,072	-0,139	0,019
-700,772	-200,000	-0,011	-0,100
-699,758	-200,000	-0,011	-0,127
-698,743	78,999	-0,036	0,029
-697,729	143,015	-0,104	-0,103
-696,714	-3,732	-0,092	-0,047
-695,699	173,759	0,118	-0,126
-694,685	-57,835	0,037	0,012
-693,670	490,991	-0,053	-0,090
-692,656	93,232	0,057	-0,048
-691,641	-142,074	0,049	-0,004
-690,627	-96,729	0,072	0,014
-689,612	127,906	-0,114	0,107
-688,597	-15,992	0,090	0,042
-687,583	-10,086	-0,128	-0,063
-686,568	674,713	-0,011	-0,021
-685,554	-43,366	-0,067	0,025
-684,539	50,190	0,112	0,078
-683,524	-200,000	0,015	0,111
-682,510	-200,000	0,004	0,015
-681,495	-200,000	-0,014	0,107
-680,481	-9,726	-0,100	0,049
-679,466	-200,000	0,013	-0,081
-678,451	745,011	0,024	0,049
-677,437	-200,000	-0,004	0,076
-676,422	88,168	0,089	-0,073
-675,408	-54,137	0,111	0,037
-674,393	45,172	-0,061	0,041
-673,378	-99,482	0,025	0,005
-672,364	508,160	-0,086	-0,149
-671,349	124,897	-0,050	-0,047
-670,335	38,259	-0,024	0,016
-669,320	800,000	0,035	-0,113
-668,305	-200,000	-0,023	-0,096
-667,291	-200,000	0,005	-0,021
-666,276	-95,068	-0,162	-0,032
-665,262	800,000	-0,088	-0,211
-664,247	-57,137	-0,073	-0,024
-663,232	-110,000	-0,043	-0,007
-662,218	145,883	0,027	-0,026
-661,203	327,055	0,069	-0,098
-660,189	157,374	-0,067	0,069
-659,174	-13,081	-0,069	-0,033
-658,159	509,660	-0,079	-0,136
-657,145	-200,000	0,056	0,189
-656,130	75,645	-0,025	-0,019
-655,116	-200,000	0,006	-0,053
-654,101	-200,000	-0,014	0,088
-653,086	-200,000	0,035	-0,143
-652,072	800,000	-0,012	0,027
-651,057	126,731	0,081	-0,076
-650,043	-62,211	-0,106	0,033
-649,028	179,096	-0,041	0,044
-648,014	11,794	0,048	-0,027
-646,999	123,697	0,101	0,094
-645,984	100,720	0,108	-0,093
-644,970	-200,000	-0,037	-0,123
-643,955	-10,197	-0,108	0,053
-642,941	-26,411	0,105	0,045
-641,926	508,102	-0,034	0,059
-640,911	-17,920	0,103	0,048
-639,897	33,734	-0,121	0,078
-638,882	149,903	0,046	-0,046
-637,868	-95,753	-0,122	-0,024
-636,853	800,000	0,043	-0,092
-635,838	81,784	-0,051	-0,041
-634,824	31,221	-0,016	0,010
-633,809	20,615	-0,057	0,034
-632,795	-200,000	0,015	0,089
-631,780	-200,000	-0,004	0,028
-630,765	-31,278	-0,118	-0,049
-629,751	205,926	-0,047	-0,054
-628,736	329,165	-0,045	-0,065
-627,722	612,348	0,035	-0,065
-626,707	222,553	0,047	0,056
-625,692	-13,966	-0,048	-0,023
-624,678	-140,366	0,051	-0,004
-623,663	800,000	0,025	0,077
-622,649	97,263	-0,105	-0,089
-621,634	36,219	0,033	0,021
-620,619	580,354	0,033	-0,059
-619,605	-42,627	-0,057	0,021
-618,590	-200,000	-0,003	-0,038
-617,576	493,040	0,042	-0,071
-616,561	-168,719	-0,105	-0,003
-615,546	-200,000	-0,032	-0,142
-614,532	-129,410	-0,129	-0,013
-613,517	218,283	-0,085	0,101
-612,503	43,939	0,118	0,080
-611,488	11,520	0,241	-0,136
-610,474	59,115	-0,071	0,051
-609,459	246,718	-0,040	0,050
-608,444	263,502	-0,057	-0,074
-607,430	800,000	-0,034	0,091
-606,415	-200,000	-0,016	-0,072
-605,401	84,345	0,035	0,028
-604,386	55,689	0,040	-0,028
-603,371	219,709	0,051	0,061
-602,357	-15,264	-0,107	0,051
-601,342	800,000	0,028	0,065
-600,328	-200,000	-0,022	-0,073
-599,313	152,071	-0,102	0,103
-598,298	800,000	0,046	-0,114
-597,284	-200,000	-0,003	0,041
-596,269	800,000	0,012	-0,025
-595,255	699,901	0,075	0,146
-594,240	-128,654	-0,150	-0,015
-593,225	246,312	0,028	0,035
-592,211	-32,802	-0,135	-0,055
-591,196	-111,165	-0,094	0,014
-590,182	-154,391	0,065	0,003
-589,167	-98,064	0,172	-0,032
-588,152	163,617	-0,072	0,075
-587,138	767,140	-0,027	0,054
-586,123	-24,023	-0,099	-0,044
-585,109	-116,104	-0,129	-0,017
-584,094	151,358	-0,039	-0,039
-583,079	172,487	-0,064	0,068
-582,065	130,217	-0,072	0,068
-581,050	-158,630	-0,114	0,005
-580,036	-200,000	-0,008	0,040
-579,021	-22,991	0,056	-0,025
-578,006	-91,334	-0,073	-0,015
-576,992	-200,000	0,007	0,036
-575,977	169,434	-0,036	-0,037
-574,963	-58,663	-0,180	-0,057
-573,948	107,683	0,152	0,133
-572,934	-34,770	0,150	0,060
-571,919	103,134	-0,051	0,044
-570,904	-200,000	-0,035	-0,135
-569,890	-200,000	0,017	0,055
-568,875	800,000	0,022	0,064
-567,861	14,588	0,177	-0,102
-566,846	-83,599	0,047	-0,011
-565,831	129,604	0,061	-0,058
-564,817	-200,000	-0,011	-0,064
-563,802	-200,000	0,004	-0,176
-562,788	61,500	-0,136	-0,100
-561,773	-200,000	0,008	-0,058
-560,758	327,614	0,048	-0,069
-559,744	-115,140	0,132	0,018
-558,729	800,000	-0,029	0,080
-557,715	759,647	0,059	-0,119
-556,700	800,000	0,028	0,083
-555,685	-58,619	0,056	0,018
-554,671	584,691	0,020	-0,037
-553,656	720,074	-0,015	0,030
-552,642	72,703	0,109	0,084
-551,627	238,240	0,022	-0,027
-550,612	83,509	0,054	-0,043
-549,598	-8,677	-0,078	-0,039
-548,583	-200,000	-0,041	0,155
-547,569	356,074	0,045	-0,066
-546,554	349,451	0,059	-0,086
-545,539	241,628	-0,101	0,124
-544,525	-175,696	0,184	0,004
-543,510	46,319	-0,049	-0,033
-542,496	473,698	-0,074	-0,123
-541,481	800,000	-0,075	-0,172
-540,466	-68,226	-0,108	-0,031
-539,452	-141,098	-0,024	0,002
-538,437	-200,000	0,033	0,134
-537,423	68,421	-0,004	0,003
-536,408	94,022	-0,082	-0,069
-535,393	36,803	-0,078	-0,051
-534,379	86,627	0,084	0,068
-533,364	-62,435	0,029	0,009
-532,350	408,550	-0,026	0,041
-531,335	443,905	0,018	0,029
-530,321	320,888	0,033	-0,046
-529,306	-62,613	0,029	0,009
-528,291	-200,000	-0,036	-0,200
-527,277	-20,974	0,078	-0,035
-526,262	-72,355	-0,056	0,015
-525,248	446,921	0,067	0,109
-524,233	430,858	-0,079	0,126
-523,218	119,022	0,033	0,030
-522,204	-71,650	0,018	0,005
-521,189	-200,000	-0,005	-0,134
-520,175	212,882	-0,060	-0,069
-519,160	-26,031	-0,035	-0,015
-518,145	700,022	0,008	0,017
-517,131	-21,617	0,080	0,036
-516,116	163,140	-0,060	-0,062
-515,102	-200,000	-0,008	-0,033
-514,087	338,746	-0,050	-0,072
-513,072	76,679	-0,022	-0,017
-512,058	126,526	0,131	-0,122
-511,043	336,034	-0,085	-0,122
-510,029	800,000	0,091	0,189
-509,014	-78,864	0,075	-0,019
-507,999	84,342	-0,104	-0,084
-506,985	800,000	0,019	0,056
-505,970	-200,000	-0,021	-0,134
-504,956	-200,000	-0,011	-0,041
-503,941	-125,956	0,082	-0,009
-502,926	-8,030	-0,060	0,030
-501,912	800,000	0,035	0,107
-500,897	-200,000	-0,011	-0,117
-499,883	243,905	-0,054	-0,067
-498,868	389,627	-0,044	-0,068
-497,853	-107,894	-0,014	-0,002
-496,839	64,596	-0,075	-0,055
-495,824	-24,592	-0,038	0,017
-494,810	-168,590	0,050	-0,001
-493,795	-200,000	-0,004	0,205
-492,781	-37,268	0,131	0,051
-491,766	-200,000	-0,028	-0,115
-490,751	800,000	-0,004	-0,011
-489,737	-200,000	0,081	-0,000
-488,722	-200,000	-0,014	-0,070
-487,708	-200,000	0,008	0,093
-486,693	67,895	0,119	0,089
-485,678	800,000	0,027	0,056
-484,664	488,569	0,072	-0,121
-483,649	-200,000	-0,015	-0,135
-482,635	-200,000	-0,023	-0,172
-481,620	547,882	0,034	0,060
-480,605	622,001	0,022	0,041
-479,591	548,704	0,065	0,115
-478,576	-67,590	-0,103	0,030
-477,562	31,543	-0,076	0,048
-476,547	-135,042	0,064	-0,006
-475,532	-200,000	-0,060	0,000
-474,518	-123,387	0,069	0,008
-473,503	413,304	0,051	0,080
-472,489	-109,191	-0,117	-0,018
-471,474	43,947	-0,138	-0,093
-470,459	-200,000	0,027	0,000
-469,445	-25,758	-0,112	0,048
-468,430	447,561	-0,048	-0,078
-467,416	-37,294	0,137	-0,053
-466,401	-79,442	-0,030	0,007
-465,386	-200,000	-0,019	-0,132
-464,372	27,746	0,071	-0,044
-463,357	-120,034	0,036	0,005
-462,343	254,294	-0,094	-0,119
-461,328	98,253	-0,093	-0,079
-460,313	-200,000	0,005	-0,045
-459,299	142,079	-0,053	0,051
-458,284	-200,000	0,025	0,184
-457,270	232,209	0,077	0,093
-456,255	-76,929	-0,064	-0,016
-455,241	548,186	-0,046	-0,082
-454,226	424,893	0,063	-0,100
-453,211	380,817	-0,033	0,050
-452,197	215,159	0,110	0,129
-451,182	-200,000	0,008	0,077
-450,168	750,835	-0,016	0,032
-449,153	800,000	-0,014	0,037
-448,138	551,985	0,046	-0,081
-447,124	-114,243	-0,054	-0,008
-446,109	362,690	0,108	0,160
-445,095	-200,000	0,008	0,083
-444,080	-170,275	0,159	0,004
-443,065	-30,053	-0,086	-0,036
-442,051	49,781	0,032	0,022
-441,036	800,000	0,024	0,051
-440,022	5,589	0,080	0,043
-439,007	-200,000	0,015	0,089
-437,992	800,000	0,057	-0,125
-436,978	-200,000	-0,017	0,141
-435,963	-67,304	-0,028	-0,008
-434,949	-150,638	-0,073	0,004
-433,934	-200,000	-0,014	-0,076
-432,919	206,444	0,032	-0,037
-431,905	-166,966	-0,067	0,002
-430,890	-111,398	0,079	-0,012
-429,876	31,523	-0,059	0,037
-428,861	-200,000	0,004	0,076
-427,846	-117,612	0,051	0,007
-426,832	-41,168	-0,018	0,007
-425,817	-87,761	-0,136	0,030
-424,803	766,549	0,077	0,155
-423,788	-106,563	0,188	0,030
-422,773	295,586	0,054	0,073
-421,759	160,260	-0,046	-0,047
-420,744	-125,686	-0,169	0,019
-419,730	-200,000	0,009	-0,136
-418,715	-43,414	0,006	0,002
-417,701	-200,000	0,001	-0,075
-416,686	800,000	0,018	0,052
-415,671	97,668	0,093	0,078
-414,657	23,200	0,100	0,060
-413,642	544,163	0,037	0,064
-412,628	-38,702	0,006	0,002
-411,613	-188,087	0,021	-0,000
-410,598	552,216	-0,033	-0,059
-409,584	-25,191	0,041	0,018
-408,569	-112,159	0,068	0,010
-407,555	-200,000	0,031	0,107
-406,540	378,894	0,032	-0,048
-405,525	-63,615	-0,091	0,027
-404,511	136,813	-0,016	-0,016
-403,496	215,721	0,052	-0,060
-402,482	39,095	-0,057	0,037
-401,467	229,614	0,100	0,120
-400,452	-72,059	0,055	0,015
-399,438	-41,401	0,050	-0,019
-398,423	-79,006	0,058	-0,014
-397,409	-104,094	-0,154	-0,026
-396,394	496,061	-0,039	-0,066
-395,379	151,679	-0,060	0,060
-394,365	162,792	0,053	0,055
-393,350	-66,146	0,071	0,021
-392,336	-200,000	0,059	0,194
-391,321	-128,967	-0,125	0,013
-390,306	800,000	-0,073	-0,173
-389,292	154,496	-0,033	-0,033
-388,277	752,803	0,011	0,022
-387,263	675,426	-0,043	0,082
-386,248	-14,449	-0,054	-0,025
-385,233	-200,000	-0,016	0,150
-384,219	189,074	0,039	0,043
-383,204	69,470	-0,056	-0,042
-382,190	-200,000	0,020	-0,132
-381,175	-55,767	0,061	0,020
-380,160	198,144	-0,079	0,089
-379,146	0,370	0,164	-0,085
-378,131	18,197	0,107	0,063
-377,117	-62,859	-0,083	0,025
-376,102	-53,230	0,130	0,044
-375,088	497,641	0,007	0,011
-374,073	-200,000	-0,006	0,103
-373,058	800,000	-0,044	0,141
-372,044	-149,486	0,127	0,007
-371,029	51,118	-0,087	0,060
-370,015	800,000	-0,054	0,123
-369,000	-200,000	-0,034	0,125
-367,985	39,313	-0,036	0,024
-366,971	800,000	0,038	-0,079
-365,956	232,992	0,088	-0,105
-364,942	-200,000	0,019	0,108
-363,927	100,266	-0,033	0,028
-362,912	-200,000	0,001	-0,055
-361,898	-5,983	-0,061	-0,030
-360,883	-5,957	-0,147	0,074
-359,869	800,000	-0,018	0,044
-358,854	800,000	-0,031	-0,087
-357,839	-78,933	0,157	0,039
-356,825	25,270	-0,093	-0,056
-355,810	-109,943	-0,028	0,004
-354,796	-200,000	0,020	-0,117
-353,781	445,805	0,048	-0,077
-352,766	800,000	-0,005	-0,011
-351,752	12,023	0,100	0,056
-350,737	54,059	-0,082	-0,058
-349,723	159,450	-0,062	-0,063
-348,708	800,000	0,017	-0,052
-347,693	-69,557	0,058	-0,016
-346,679	-6,432	-0,057	0,028
-345,664	-46,876	0,057	-0,020
-344,650	-200,000	0,029	0,101
-343,635	-82,816	0,022	-0,005
-342,620	-200,000	-0,004	-0,018
-341,606	48,273	0,085	0,058
-340,591	-200,000	-0,079	0,000
-339,577	800,000	-0,064	-0,151
-338,562	-189,933	-0,165	0,001
-337,548	54,152	-0,003	0,002
-336,533	61,706	0,100	0,073
-335,518	168,933	0,081	0,084
-334,504	-200,000	0,007	-0,058
-333,489	800,000	-0,029	-0,078
-332,475	555,389	-0,046	-0,082
-331,460	-200,000	0,022	-0,075
-330,445	800,000	-0,050	-0,121
-329,431	131,131	-0,034	0,032
-328,416	744,517	0,045	0,089
-327,402	258,969	0,050	-0,063
-326,387	-96,084	-0,119	0,023
-325,372	800,000	0,015	-0,037
-324,358	800,000	-0,024	0,060
-323,343	800,000	0,016	-0,045
-322,329	-80,102	0,090	0,022
-321,314	-200,000	0,021	0,148
-320,299	-200,000	-0,010	0,035
-319,285	53,137	-0,078	-0,055
-318,270	800,000	-0,091	0,191
-317,256	-200,000	-0,034	-0,114
-316,241	-28,552	0,089	-0,037
-315,226	800,000	0,076	-0,196
-314,212	-36,329	-0,042	-0,016
-313,197	-200,000	0,037	0,122
-312,183	800,000	0,022	0,046
-311,168	129,339	-0,088	-0,082
-310,153	361,256	0,020	-0,030
-309,139	-128,557	-0,056	0,006
-308,124	-200,000	0,010	0,188
-307,110	-200,000	-0,001	0,061
-306,095	-200,000	0,011	0,074
-305,080	-68,716	0,072	-0,020
-304,066	627,758	-0,046	0,084
-303,051	-200,000	0,006	-0,101
-302,037	-200,000	-0,020	0,087
-301,022	-106,421	-0,052	0,008
-300,008	9,326	-0,042	0,023
-298,993	-200,000	-0,013	-0,076
-297,978	800,000	0,031	0,082
-296,964	153,611	0,089	0,089
-295,949	-10,129	-0,093	0,045
-294,935	108,122	-0,064	0,056
-293,920	220,718	0,060	-0,070
-292,905	-34,791	0,062	0,025
-291,891	-123,306	0,150	-0,017
-290,876	800,000	0,068	0,153
-289,862	-200,000	-0,018	0,116
-288,847	163,930	-0,041	0,042
-287,832	-197,529	0,216	-0,001
-286,818	800,000	0,027	0,078
-285,803	800,000	0,045	0,134
-284,789	-156,404	0,039	-0,002
-283,774	42,867	0,142	0,094
-282,759	-87,031	0,045	0,010
-281,745	-200,000	0,035	-0,159
-280,730	4,673	-0,025	-0,013
-279,716	69,734	-0,151	-0,113
-278,701	-200,000	-0,006	-0,039
-277,686	-68,630	0,052	0,015
-276,672	59,474	0,133	-0,096
-275,657	-96,983	-0,131	0,025
-274,643	800,000	-0,053	-0,107
-273,628	-135,930	-0,048	-0,004
-272,613	732,754	-0,026	0,052
-271,599	119,267	0,133	0,120
-270,584	-31,044	0,060	-0,025
-269,570	-200,000	0,006	0,039
-268,555	406,343	0,037	-0,057
-267,540	-32,829	-0,048	-0,019
-266,526	-200,000	-0,011	-0,037
-265,511	72,878	-0,073	-0,056
-264,497	127,946	0,091	0,085
-263,482	800,000	0,018	-0,052
-262,467	577,002	0,036	0,065
-261,453	101,337	-0,063	0,054
-260,438	366,210	-0,050	0,074
-259,424	800,000	0,020	-0,059
-258,409	28,311	-0,075	-0,046
-257,395	-200,000	-0,001	-0,037
-256,380	-200,000	0,016	0,079
-255,365	-35,033	0,067	0,026
-254,351	-98,473	-0,058	-0,011
-253,336	144,832	-0,043	-0,041
-252,322	-49,159	-0,114	-0,040
-251,307	-200,000	-0,017	0,062
-250,292	-119,311	-0,033	0,004
-249,278	-200,000	0,008	0,129
-248,263	800,000	0,018	0,057
-247,249	800,000	0,019	-0,057
-246,234	-200,000	-0,013	-0,096
-245,219	174,688	-0,109	0,115
-244,205	800,000	0,028	-0,060
-243,190	-200,000	0,020	-0,154
-242,176	-40,023	0,131	-0,050
-241,161	-88,190	-0,038	0,008
-240,146	152,356	0,033	0,033
-239,132	33,958	0,070	-0,045
-238,117	800,000	0,008	-0,024
-237,103	45,353	0,097	-0,065
-236,088	102,057	0,090	-0,076
-235,073	800,000	-0,023	0,047
-234,059	272,154	-0,029	-0,038
-233,044	-200,000	-0,016	0,164
-232,030	-141,848	-0,048	-0,003
-231,015	-137,549	-0,038	0,003
-230,000	-13,354	0,069	-0,032
-228,986	156,863	-0,080	-0,081
-227,971	453,569	-0,033	0,054
-226,957	-200,000	-0,012	-0,092
-225,942	28,463	0,092	0,057
-224,927	284,201	-0,096	0,126
-223,913	800,000	-0,011	-0,033
-222,898	-42,909	-0,054	0,020
-221,884	398,049	0,111	0,169
-220,869	-83,847	0,048	0,011
-219,855	15,200	-0,054	-0,031
-218,840	-64,239	-0,093	0,027
-217,825	-200,000	0,004	-0,117
-216,811	60,102	0,020	-0,014
-215,796	762,938	-0,026	-0,051
-214,782	-13,616	0,086	-0,040
-213,767	800,000	0,035	0,078
-212,752	-85,389	0,080	-0,018
-211,738	407,182	0,044	-0,067
-210,723	-200,000	-0,026	-0,100
-209,709	-200,000	-0,004	0,079
-208,694	-200,000	-0,009	-0,133
-207,679	-18,296	-0,007	-0,003
-206,665	-57,550	-0,044	0,014
-205,650	800,000	-0,049	-0,100
-204,636	375,066	0,029	-0,043
-203,621	343,650	0,106	-0,152
-202,606	59,753	-0,064	-0,046
-201,592	800,000	-0,039	0,089
-200,577	-57,254	0,096	-0,031
-199,563	-81,322	-0,041	-0,010
-198,548	-4,555	0,033	-0,017
-197,533	19,123	-0,122	-0,071
-196,519	-84,586	0,048	0,011
-195,504	26,933	-0,106	0,064
-194,490	72,167	0,123	-0,093
-193,475	503,753	-0,112	-0,190
-192,460	158,777	-0,046	0,047
-191,446	800,000	0,043	0,106
-190,431	-200,000	0,025	0,088
-189,417	800,000	0,022	-0,063
-188,402	33,606	0,044	0,028
-187,387	1,613	-0,096	-0,050
-186,373	519,931	-0,041	0,071
-185,358	124,854	-0,089	-0,081
-184,344	41,586	-0,075	-0,049
-183,329	-30,427	-0,113	-0,047
-182,315	-200,000	-0,006	0,108
-181,300	58,674	-0,127	-0,090
-180,285	-200,000	0,002	0,056
-179,271	-200,000	-0,017	-0,082
-178,256	-200,000	0,011	0,200
-177,242	225,218	0,035	-0,042
-176,227	63,966	0,054	-0,039
-175,212	782,193	0,022	-0,044
-174,198	47,117	-0,027	0,018
-173,183	68,596	0,065	0,048
-172,169	-13,320	0,074	0,035
-171,154	111,592	-0,065	0,057
-170,139	-200,000	0,027	0,118
-169,125	-200,000	0,019	-0,102
-168,110	55,601	-0,004	0,003
-167,096	23,249	-0,096	0,057
-166,081	115,877	0,039	-0,035
-165,066	464,421	-0,072	-0,118
-164,052	87,714	0,050	-0,040
-163,037	-38,199	0,086	-0,033
-162,023	153,491	-0,054	0,053
-161,008	336,112	-0,048	0,068
-159,993	-153,274	0,060	-0,003
-158,979	-113,564	-0,042	-0,006
-157,964	-162,962	-0,140	-0,005
-156,950	800,000	0,049	-0,115
-155,935	-200,000	0,019	-0,063
-154,920	-57,825	0,153	-0,048
-153,906	-55,189	0,064	-0,021
-152,891	-200,000	-0,013	0,068
-151,877	200,696	-0,056	0,062
-150,862	-200,000	0,022	0,100
-149,847	380,718	0,058	0,087
-148,833	98,966	-0,086	-0,072
-147,818	-200,000	0,027	0,126
-146,804	136,186	0,041	0,039
-145,789	178,149	0,053	-0,056
-144,775	29,546	0,034	-0,021
-143,760	-91,467	-0,112	0,023
-142,745	800,000	-0,036	0,083
-141,731	-102,478	-0,075	-0,013
-140,716	86,562	0,071	0,057
-139,702	-87,169	0,016	-0,003
-138,687	-24,345	-0,102	0,044
-137,672	419,501	-0,037	-0,057
-136,658	240,567	-0,098	0,118
-135,643	800,000	0,031	0,068
-134,629	-70,502	0,095	0,026
-133,614	194,084	0,019	-0,021
-132,599	-85,829	-0,072	-0,016
-131,585	800,000	0,022	0,068
-130,570	139,707	-0,030	-0,029
-129,556	71,703	-0,063	-0,048
-128,541	225,821	0,089	-0,105
-127,526	-68,081	-0,071	-0,020
-126,512	88,378	0,044	0,035
-125,497	-200,000	-0,014	-0,074
-124,483	800,000	0,069	0,174
-123,468	550,243	-0,047	0,083
-122,453	-200,000	0,000	-0,076
-121,439	-200,000	-0,020	-0,104
-120,424	800,000	0,018	0,059
-119,410	-200,000	0,014	0,112
-118,395	-112,449	0,139	0,020
-117,380	327,411	-0,044	-0,061
-116,366	47,056	0,127	0,086
-115,351	359,444	-0,037	0,054
-114,337	67,656	-0,135	-0,100
-113,322	-200,000	-0,003	-0,079
-112,307	-200,000	0,015	-0,052
-111,293	800,000	0,069	-0,151
-110,278	295,643	0,063	-0,084
-109,264	-134,815	-0,098	-0,009
-108,249	319,416	0,037	0,051
-107,234	295,875	0,045	-0,059
-106,220	41,213	-0,063	-0,041
-105,205	295,713	0,093	-0,123
-104,191	506,101	-0,025	0,043
-103,176	25,738	0,137	0,083
-102,162	176,347	0,152	-0,160
-101,147	800,000	0,054	-0,116
-100,132	800,000	0,072	-0,182
-99,118	77,725	-0,098	0,075
-98,103	-66,970	0,082	0,023
-97,089	-115,136	0,086	0,012
-96,074	-58,927	0,090	0,028
-95,059	-200,000	0,025	-0,115
-94,045	-78,553	-0,068	-0,017
-93,030	358,768	-0,039	-0,057
-92,016	318,440	-0,044	-0,060
-91,001	-84,818	-0,083	-0,019
-89,986	139,843	0,087	0,083
-88,972	-10,146	-0,101	-0,048
-87,957	-37,950	0,145	0,056
-86,943	597,226	-0,093	0,167
-85,928	-38,272	-0,042	-0,016
-84,913	-52,934	-0,070	0,023
-83,899	-200,000	-0,015	0,086
-82,884	-200,000	0,002	0,153
-81,870	-138,655	0,191	-0,015
-80,855	696,409	-0,018	-0,034
-79,840	-111,757	-0,098	-0,014
-78,826	-6,868	-0,078	-0,038
-77,811	-200,000	-0,006	-0,024
-76,797	8,073	-0,131	-0,071
-75,782	-62,420	0,071	0,021
-74,767	-200,000	-0,028	0,145
-73,753	122,487	-0,103	0,094
-72,738	86,386	-0,094	-0,075
-71,724	142,259	-0,050	0,048
-70,709	56,360	-0,105	0,073
-69,694	573,157	0,072	-0,127
-68,680	210,645	0,066	0,076
-67,665	106,989	0,077	0,066
-66,651	-144,079	0,089	0,006
-65,636	-200,000	0,021	0,074
-64,622	113,936	-0,053	0,047
-63,607	-200,000	0,005	-0,225
-62,592	408,231	-0,017	0,026
-61,578	141,321	-0,024	-0,023
-60,563	-62,572	0,117	0,035
-59,549	-55,103	-0,063	0,021
-58,534	-85,806	-1,574	-0,350
-57,519	495,049	-0,792	-1,320
-56,505	-200,000	-0,955	-4,560
-55,490	-75,720	0,726	-0,185
-54,476	800,000	4,980	11,854
-53,461	-200,000	14,799	263,633
-52,446	-200,000	698,299	2266,191
-51,432	596,230	1621,073	2913,909
-50,417	117,792	1626,900	1448,230
-49,403	76,045	1280,928	978,786
-48,388	36,349	1019,401	648,429
-47,373	22,245	979,306	576,731
-46,359	21,385	968,454	567,508
-45,344	20,126	964,287	560,949
-44,330	20,009	962,962	559,775
-43,315	19,879	961,353	558,395
-42,300	19,859	960,252	557,668
-41,286	19,880	959,378	557,206
-40,271	19,869	958,224	556,478
-39,257	19,900	957,349	556,049
-38,242	19,862	956,543	555,437
-37,227	19,826	955,819	554,878
-36,213	19,809	954,939	554,291
-35,198	19,769	954,097	553,652
-34,184	19,874	953,389	553,557
-33,169	19,779	952,254	552,570
-32,154	19,901	951,507	552,507
-31,140	19,847	950,591	551,777
-30,125	19,882	949,829	551,426
-29,111	19,823	948,923	550,690
-28,096	19,868	948,264	550,429
-27,082	19,821	947,672	549,912
-26,067	19,839	946,863	549,482
-25,052	19,878	945,789	548,960
-24,038	19,862	945,447	548,689
-23,023	19,846	944,595	548,121
-22,009	19,836	944,197	547,837
-20,994	19,893	943,431	547,553
-19,979	19,812	942,988	547,015
-18,965	19,836	942,271	546,654
-17,950	19,837	941,649	546,273
-16,936	19,827	940,886	545,777
-15,921	19,745	940,229	545,115
-14,906	19,695	939,614	544,579
-13,892	19,734	939,070	544,365
-12,877	19,716	938,308	543,844
-11,863	19,645	937,811	543,312
-10,848	19,789	937,158	543,366
-9,833	19,824	936,847	543,274
-8,819	19,808	936,176	542,813
-7,804	19,754	935,461	542,207
-6,790	19,759	934,870	541,861
-5,775	19,774	934,338	541,575
-4,760	19,811	933,679	541,289
-3,746	19,738	933,150	540,731
-2,731	19,544	932,467	539,704
-1,717	19,555	931,600	539,215
-0,702	19,598	931,051	539,012
0,313	19,372	930,375	538,724
1,327	22,130	928,294	546,108
2,342	30,171	806,002	495,853
3,356	25,651	509,508	305,716
4,371	2,604	377,019	196,721
5,386	-0,240	360,362	184,498
6,400	-0,912	354,749	180,791
7,415	-0,917	352,231	179,486
8,429	-0,683	350,874	179,061
9,444	-0,804	350,027	178,466
10,459	-0,618	349,330	178,319
11,473	-0,714	348,705	177,868
12,488	-0,678	348,061	177,567
13,502	-0,646	347,514	177,311
14,517	-0,762	347,296	177,045
15,531	-0,373	346,739	177,208
16,546	-0,291	346,284	177,057
17,561	-0,325	345,752	176,729
18,575	-0,296	345,368	176,551
19,590	-0,414	344,990	176,202
20,604	-0,365	344,653	176,073
21,619	-0,393	344,323	175,856
22,634	-0,426	343,953	175,612
23,648	-0,352	343,556	175,481
24,663	-0,381	343,262	175,281
25,677	-0,339	342,982	175,171
26,692	-0,240	342,609	175,082
27,707	-0,465	342,528	174,761
28,721	-0,284	342,105	174,742
29,736	-0,430	341,766	174,381
30,750	-0,272	341,413	174,371
31,765	-0,264	341,101	174,205
32,780	-0,299	340,953	174,072
33,794	-0,216	340,566	173,957
34,809	-0,379	340,367	173,650
35,823	-0,264	339,983	173,572
36,838	-0,330	339,844	173,409
37,853	-0,452	339,547	173,101
38,867	-0,651	339,362	172,759
39,882	-0,363	338,962	172,874
40,896	-0,237	338,513	172,776
41,911	-0,399	338,507	172,570
42,926	-0,446	338,161	172,324
43,940	-0,356	337,775	172,215
44,955	-0,292	337,537	172,152
45,969	-0,339	337,340	171,983
46,984	-0,258	336,821	171,796
47,999	-0,395	336,745	171,584
49,013	-0,517	336,530	171,319
50,028	-0,478	336,233	171,198
51,042	-0,468	335,996	171,073
52,057	-0,455	335,604	170,873
53,071	-0,596	335,518	170,652
54,086	-0,440	335,097	170,601
55,101	-0,434	334,972	170,529
56,115	-0,239	334,657	170,577
57,130	-0,315	334,402	170,345
58,144	-0,418	334,017	170,017
59,159	-0,357	333,841	169,981
60,174	-0,461	333,771	169,812
61,188	-0,444	333,411	169,633
62,203	-0,347	333,164	169,602
63,217	-0,282	332,848	169,500
64,232	-0,110	332,544	169,526
65,247	-0,481	332,239	168,934
66,261	-0,418	331,943	168,840
67,276	-0,475	331,834	168,705
68,290	-0,415	331,651	168,665
69,305	-0,567	331,338	168,318
70,320	-0,457	331,153	168,334
71,334	-0,391	330,890	168,259
72,349	-0,375	330,619	168,125
73,363	-0,469	330,165	167,774
74,378	-0,502	330,084	167,681
75,393	-0,364	329,812	167,682
76,407	-0,388	329,611	167,538
77,422	-0,254	329,367	167,550
78,436	-0,304	328,985	167,284
79,451	-0,392	328,657	167,004
80,466	-0,566	328,525	166,727
81,480	-0,255	328,211	166,901
82,495	-0,201	328,025	166,852
83,509	-0,375	327,733	166,493
84,524	-0,333	327,623	166,470
85,539	-0,318	327,343	166,330
86,553	-0,332	327,170	166,211
87,568	-0,401	326,862	165,962
88,582	-0,444	326,599	165,768
89,597	-0,460	326,366	165,616
90,611	-0,258	326,076	165,679
91,626	-0,368	325,939	165,471
92,641	-0,244	325,632	165,438
93,655	-0,344	325,426	165,209
94,670	-0,224	325,067	165,145
95,684	-0,236	324,816	164,989
96,699	-0,438	324,681	164,682
97,714	-0,396	324,554	164,650
98,728	-0,486	324,332	164,423
99,743	-0,228	323,951	164,500
100,757	-0,407	323,928	164,276
101,772	-0,425	323,642	164,096
102,787	-0,299	323,286	164,040
103,801	-0,411	323,232	163,875
104,816	-0,368	322,950	163,764
105,830	-0,335	322,676	163,647
106,845	-0,234	322,374	163,591
107,860	-0,404	322,173	163,287
108,874	-0,602	322,036	162,987
109,889	-0,438	321,624	162,943
110,903	-0,473	321,525	162,840
111,918	-0,457	321,229	162,693
112,933	-0,500	321,022	162,526
113,947	-0,360	320,811	162,558
114,962	-0,438	320,567	162,334
115,976	-0,312	320,245	162,294
116,991	-0,292	320,060	162,208
118,006	-0,350	320,068	162,135
119,020	-0,323	319,739	161,983
120,035	-0,338	319,612	161,888
121,049	-0,349	319,398	161,753
122,064	-0,400	319,265	161,616
123,079	-0,451	318,888	161,356
124,093	-0,307	318,485	161,292
125,108	-0,457	318,357	161,051
126,122	-0,454	318,041	160,880
127,137	-0,416	317,963	160,867
128,151	-0,523	317,657	160,583
129,166	-0,269	317,473	160,749
130,181	-0,297	317,204	160,569
131,195	-0,475	316,949	160,234
132,210	-0,344	316,732	160,251
133,224	-0,359	316,611	160,159
134,239	-0,419	316,421	159,984
135,254	-0,459	316,104	159,766
136,268	-0,454	315,801	159,605
137,283	-0,449	315,680	159,535
138,297	-0,458	315,280	159,308
139,312	-0,429	315,208	159,289
140,327	-0,375	314,968	159,211
141,341	-0,287	314,727	159,169
142,356	-0,280	314,533	159,064
143,370	-0,287	314,316	158,933
144,385	-0,277	314,180	158,861
145,400	-0,199	313,888	158,782
146,414	-0,471	313,765	158,417
147,429	-0,273	313,420	158,438
148,443	-0,352	313,276	158,268
149,458	-0,238	312,932	158,201
150,473	-0,310	312,618	157,951
151,487	-0,351	312,711	157,941
152,502	-0,325	312,200	157,696
153,516	-0,304	312,094	157,650
154,531	-0,288	311,854	157,532
155,546	-0,535	311,764	157,212
156,560	-0,296	311,474	157,303
157,575	-0,441	311,206	157,001
158,589	-0,356	311,049	156,998
159,604	-0,350	310,754	156,841
160,619	-0,339	310,610	156,766
161,633	-0,235	310,418	156,765
162,648	-0,264	310,220	156,620
163,662	-0,325	310,008	156,436
164,677	-0,311	309,841	156,351
165,692	-0,367	309,585	156,151
166,706	-0,276	309,518	156,197
167,721	-0,234	309,182	156,058
168,735	-0,428	309,136	155,817
169,750	-0,337	308,801	155,730
170,764	-0,445	308,550	155,477
171,779	-0,360	308,400	155,476
172,794	-0,413	308,226	155,320
173,808	-0,369	307,893	155,183
174,823	-0,435	307,805	155,057
175,837	-0,394	307,596	154,981
176,852	-0,419	307,441	154,862
177,867	-0,360	307,209	154,792
178,881	-0,221	306,945	154,790
179,896	-0,459	306,707	154,410
180,910	-0,204	306,454	154,533
181,925	-0,342	306,317	154,307
182,940	-0,316	306,274	154,299
183,954	-0,417	305,986	154,035
184,969	-0,271	305,820	154,089
185,983	-0,306	305,508	153,882
186,998	-0,260	305,379	153,850
188,013	-0,415	305,199	153,586
189,027	-0,402	304,845	153,408
190,042	-0,231	304,681	153,488
191,056	-0,368	304,541	153,263
192,071	-0,625	304,409	152,918
193,086	-0,436	304,021	152,904
194,100	-0,448	303,966	152,851
195,115	-0,193	303,547	152,887
196,129	-0,288	303,386	152,695
197,144	-0,362	303,233	152,529
198,159	-0,252	302,917	152,469
199,173	-0,352	302,718	152,252
200,188	-0,579	302,376	151,836
201,202	-0,478	302,292	151,882
202,217	-0,517	302,110	151,738
203,232	-0,556	301,857	151,558
204,246	-0,292	301,737	151,752
205,261	-0,216	301,512	151,703
206,275	-0,144	301,262	151,637
207,290	-0,205	301,114	151,486
208,304	-0,352	300,952	151,243
209,319	-0,136	300,619	151,281
210,334	-0,271	300,489	151,065
211,348	-0,271	300,270	150,942
212,363	-0,309	300,083	150,796
213,377	-0,398	299,884	150,593
214,392	-0,315	299,801	150,621
215,407	-0,293	299,566	150,512
216,421	-0,208	299,333	150,467
217,436	-0,436	299,245	150,180
218,450	-0,350	298,981	150,121
219,465	-0,280	298,726	150,050
220,480	-0,544	298,645	149,730
221,494	-0,384	298,444	149,777
222,509	-0,342	298,297	149,731
223,523	-0,444	297,946	149,439
224,538	-0,366	297,793	149,428
225,553	-0,412	297,733	149,338
226,567	-0,372	297,485	149,241
227,582	-0,326	297,453	149,257
228,596	-0,316	297,070	149,062
229,611	-0,450	296,874	148,816
230,626	-0,245	296,692	148,917
231,640	-0,218	296,539	148,853
232,655	-0,341	296,300	148,597
233,669	-0,390	295,958	148,364
234,684	-0,359	295,835	148,320
235,699	-0,337	295,694	148,257
236,713	-0,110	295,584	148,415
237,728	-0,335	295,368	148,070
238,742	-0,267	295,026	147,953
239,757	-0,203	294,731	147,855
240,772	-0,352	294,577	147,617
241,786	-0,413	294,489	147,499
242,801	-0,263	294,419	147,599
243,815	-0,531	294,209	147,216
244,830	-0,434	294,089	147,239
245,844	-0,307	293,678	147,145
246,859	-0,526	293,633	146,893
247,874	-0,552	293,326	146,701
248,888	-0,697	293,249	146,507
249,903	-0,468	292,817	146,503
250,917	-0,499	292,710	146,406
251,932	-0,433	292,642	146,424
252,947	-0,712	292,092	145,862
253,961	-1,422	291,740	144,978
254,976	-2,133	291,297	144,048
255,990	-2,262	291,039	143,782
257,005	-0,742	291,743	145,607
258,020	1,896	292,503	148,561
259,034	2,877	292,623	149,570
260,049	3,158	292,622	149,832
261,063	3,366	292,575	149,998
262,078	3,558	292,547	150,159
263,093	3,762	292,341	150,239
264,107	3,851	292,095	150,185
265,122	3,992	292,123	150,325
266,136	4,281	291,867	150,461
267,151	4,169	291,815	150,312
268,166	4,238	291,500	150,204
269,180	4,090	291,331	149,959
270,195	4,160	291,069	149,878
271,209	4,090	290,861	149,691
272,224	3,973	290,727	149,494
273,239	3,977	290,534	149,385
274,253	3,696	290,373	149,017
275,268	3,721	290,088	148,881
276,282	3,876	289,784	148,862
277,297	3,810	289,730	148,757
278,312	3,841	289,553	148,683
279,326	3,943	289,441	148,712
280,341	3,861	289,183	148,486
281,355	3,831	288,999	148,349
282,370	3,802	288,937	148,276
283,384	3,790	288,548	148,051
284,399	3,835	288,541	148,079
285,414	3,883	288,326	148,001
286,428	3,869	287,987	147,800
287,443	3,707	287,701	147,485
288,457	3,753	287,557	147,443
289,472	3,363	287,425	146,987
290,487	3,452	287,331	147,011
291,501	3,642	287,054	147,038
292,516	3,701	286,681	146,891
293,530	3,449	286,680	146,636
294,545	3,546	286,420	146,583
295,560	3,457	286,284	146,415
296,574	3,293	286,001	146,100
297,589	3,306	285,794	145,994
298,603	3,547	285,628	146,126
299,618	3,509	285,412	145,966
300,633	3,697	285,309	146,080
301,647	3,624	285,161	145,922
302,662	3,746	285,105	145,995
303,676	3,706	284,903	145,842
304,691	3,911	284,716	145,927
305,706	3,997	284,509	145,890
306,720	4,148	284,332	145,928
307,735	3,909	284,303	145,674
308,749	3,984	284,034	145,594
309,764	3,972	283,726	145,413
310,779	3,788	283,557	145,139
311,793	3,872	283,385	145,117
312,808	3,883	283,114	144,976
313,822	3,711	283,014	144,750
314,837	3,863	282,761	144,751
315,852	3,699	282,686	144,545
316,866	3,885	282,487	144,605
317,881	3,879	282,310	144,496
318,895	3,797	282,057	144,277
319,910	3,674	281,959	144,098
320,925	3,625	281,737	143,926
321,939	3,825	281,544	144,002
322,954	4,023	281,388	144,094
323,968	3,909	281,337	143,949
324,983	3,790	281,202	143,756
325,997	3,842	281,075	143,726
327,012	3,968	280,800	143,690
328,027	4,115	280,555	143,690
329,041	3,949	280,407	143,446
330,056	3,951	280,328	143,395
331,070	3,970	280,130	143,298
332,085	4,030	279,737	143,140
333,100	3,981	279,635	143,030
334,114	3,845	279,518	142,831
335,129	3,978	279,354	142,859
336,143	3,937	279,178	142,717
337,158	4,086	278,986	142,744
338,173	4,143	278,794	142,687
339,187	4,194	278,570	142,606
340,202	3,942	278,470	142,309
341,216	3,853	278,332	142,144
342,231	4,048	278,097	142,191
343,246	4,005	277,847	142,011
344,260	3,932	277,793	141,903
345,275	4,003	277,565	141,840
346,289	4,017	277,459	141,786
347,304	4,030	277,333	141,721
348,319	4,011	277,048	141,545
349,333	3,805	276,862	141,248
350,348	4,119	276,568	141,373
351,362	4,085	276,489	141,289
352,377	4,005	276,447	141,182
353,392	4,002	276,118	140,998
354,406	3,811	276,020	140,761
355,421	191,845	1349,158	1425,936
356,435	155,001	1479,985	1426,052
