DTS Sentinel unit serial number:	SN410029Multiplexer serial number:	ORYXHardware model number:	OX2-SRSoftware version number:	ORYX F/W v4,00 Oryx Data Collector v3.7.2.0data status	okinstallation	B4 Nyhavnadifferential loss correction	single-endedforward channel	channel 2reverse channel	N/Adate	2023/12/16time	10:50:13forward acquisition time	300,00reverse acquisition time	0,00gamma	499,1914k internal	0,3125k external	0,3125temperature offset calibration	1,0000default loss term (dB/km)	0,3820temperature slope calibration	1,0000multiplexer offset coefficient	1,0000multiplexer slope coefficient	1,0000fibre end	0,00T internal ref (°C)	23,43T ext. ref 1 (°C)	9,12T ext. ref 2 (°C)	9,31length (m)	temperature (°C)	Stokes	anti-Stokes-744,400	-200,000	-0,030	-0,177
-743,385	800,000	-0,034	0,087
-742,371	156,858	0,076	-0,078
-741,356	114,341	-0,185	0,167
-740,342	13,464	0,069	-0,039
-739,327	57,750	-0,199	0,145
-738,312	-200,000	-0,008	-0,088
-737,298	390,704	-0,115	0,178
-736,283	435,489	-0,026	0,042
-735,269	-9,692	-0,340	0,168
-734,254	236,256	0,085	-0,105
-733,239	-123,021	-0,306	-0,036
-732,225	-74,636	0,135	0,036
-731,210	-200,000	-0,009	-0,084
-730,196	-200,000	-0,003	0,074
-729,181	-67,174	-0,091	0,027
-728,167	161,869	-0,060	-0,063
-727,152	23,325	0,115	0,070
-726,137	800,000	-0,018	0,039
-725,123	-96,219	-0,045	-0,009
-724,108	-200,000	0,008	-0,060
-723,094	457,330	-0,112	-0,185
-722,079	43,491	-0,145	-0,099
-721,064	437,297	0,104	-0,169
-720,050	568,006	-0,103	-0,186
-719,035	-35,249	0,043	0,017
-718,021	-70,117	-0,145	-0,041
-717,006	358,665	-0,089	-0,132
-715,991	-1,630	-0,036	0,019
-714,977	374,167	-0,047	0,071
-713,962	215,804	0,063	-0,075
-712,948	360,527	0,085	-0,127
-711,933	-39,453	-0,052	-0,020
-710,918	-106,357	-0,037	-0,006
-709,904	717,341	0,040	0,079
-708,889	-200,000	-0,009	-0,067
-707,875	390,300	0,060	-0,092
-706,860	27,167	-0,105	-0,066
-705,845	-102,018	0,184	-0,033
-704,831	753,327	0,072	-0,146
-703,816	15,035	0,117	0,068
-702,802	-83,939	-0,119	-0,028
-701,787	184,184	0,016	0,017
-700,772	800,000	-0,043	-0,129
-699,758	-168,384	0,122	-0,003
-698,743	-200,000	-0,006	-0,134
-697,729	-200,000	-0,010	-0,062
-696,714	167,742	0,074	0,078
-695,699	-200,000	-0,012	-0,066
-694,685	-200,000	-0,015	-0,150
-693,670	-49,505	0,045	-0,016
-692,656	-68,117	-0,153	-0,044
-691,641	800,000	-0,021	-0,065
-690,627	-200,000	-0,013	0,184
-689,612	800,000	0,051	0,114
-688,597	-200,000	0,006	-0,088
-687,583	709,609	-0,087	-0,173
-686,568	-128,459	-0,136	-0,014
-685,554	41,514	-0,072	0,049
-684,539	104,899	0,042	-0,037
-683,524	-200,000	0,016	-0,086
-682,510	238,359	0,013	-0,016
-681,495	127,574	-0,141	-0,133
-680,481	-86,050	-0,142	0,032
-679,466	-200,000	0,002	0,046
-678,451	-5,751	0,099	-0,050
-677,437	-7,459	-0,053	0,026
-676,422	100,442	-0,054	0,047
-675,408	800,000	-0,041	0,107
-674,393	-200,000	-0,022	-0,088
-673,378	732,074	0,021	0,043
-672,364	-114,853	-0,143	-0,020
-671,349	314,773	0,092	-0,129
-670,335	800,000	0,026	0,081
-669,320	800,000	0,032	-0,076
-668,305	66,264	-0,129	-0,097
-667,291	-18,642	-0,145	-0,067
-666,276	-200,000	0,004	-0,148
-665,262	800,000	0,017	-0,048
-664,247	-200,000	-0,021	0,091
-663,232	-200,000	-0,020	-0,091
-662,218	-91,881	-0,118	0,025
-661,203	51,238	0,040	0,028
-660,189	-200,000	0,010	-0,053
-659,174	-200,000	-0,012	-0,189
-658,159	57,795	-0,075	0,055
-657,145	-200,000	-0,014	-0,082
-656,130	-176,518	-0,030	-0,001
-655,116	-200,000	0,003	0,090
-654,101	343,454	-0,027	-0,039
-653,086	637,582	-0,048	0,091
-652,072	-157,488	-0,118	0,005
-651,057	645,392	-0,064	-0,122
-650,043	-77,662	0,117	-0,030
-649,028	-139,139	-0,120	-0,009
-648,014	7,131	-0,056	0,031
-646,999	-146,983	0,158	-0,010
-645,984	219,500	-0,040	0,048
-644,970	49,165	-0,076	0,053
-643,955	800,000	-0,038	-0,108
-642,941	-200,000	-0,015	-0,119
-641,926	26,316	0,114	0,070
-640,911	85,797	0,107	0,087
-639,897	-200,000	0,009	0,115
-638,882	47,503	-0,056	-0,039
-637,868	144,291	-0,103	-0,102
-636,853	461,919	-0,034	-0,056
-635,838	319,436	0,037	-0,053
-634,824	-34,103	-0,116	-0,047
-633,809	-41,711	0,042	-0,016
-632,795	-200,000	-0,039	0,134
-631,780	-131,144	-0,040	0,004
-630,765	-200,000	0,001	-0,132
-629,751	-31,870	-0,104	-0,043
-628,736	-200,000	-0,015	-0,073
-627,722	-200,000	0,001	0,037
-626,707	66,192	0,115	0,087
-625,692	800,000	0,025	0,077
-624,678	-200,000	0,001	0,019
-623,663	-200,000	0,011	-0,073
-622,649	153,040	0,045	-0,046
-621,634	352,595	-0,035	-0,051
-620,619	165,132	-0,083	0,087
-619,605	278,355	-0,017	0,022
-618,590	-200,000	0,013	0,088
-617,576	-35,850	0,099	0,040
-616,561	16,902	-0,120	0,070
-615,546	800,000	0,041	-0,110
-614,532	-200,000	-0,002	-0,045
-613,517	272,052	-0,059	-0,077
-612,503	-200,000	0,020	-0,089
-611,488	108,119	-0,072	0,064
-610,474	38,827	-0,130	0,086
-609,459	124,728	0,082	-0,077
-608,444	-200,000	-0,015	-0,084
-607,430	800,000	-0,042	-0,093
-606,415	40,914	0,040	-0,027
-605,401	565,125	-0,020	-0,035
-604,386	91,706	0,056	0,047
-603,371	-200,000	-0,048	0,159
-602,357	673,292	-0,024	-0,046
-601,342	570,933	-0,046	0,083
-600,328	619,013	-0,063	-0,118
-599,313	-200,000	-0,003	-0,053
-598,298	-200,000	-0,001	-0,100
-597,284	-200,000	0,021	0,175
-596,269	-200,000	0,007	0,028
-595,255	116,365	0,018	0,016
-594,240	670,283	-0,043	-0,083
-593,225	-200,000	-0,014	-0,088
-592,211	800,000	-0,070	-0,197
-591,196	342,720	-0,026	0,038
-590,182	-200,000	-0,043	-0,203
-589,167	185,135	0,123	0,135
-588,152	-200,000	0,011	0,057
-587,138	-89,168	-0,065	-0,014
-586,123	194,183	-0,091	-0,102
-585,109	-26,348	-0,111	-0,048
-584,094	-200,000	-0,002	-0,082
-583,079	800,000	0,011	0,027
-582,065	143,537	0,081	0,080
-581,050	51,782	0,082	0,058
-580,036	800,000	-0,017	-0,050
-579,021	69,960	-0,044	-0,033
-578,006	-69,615	-0,137	-0,038
-576,992	800,000	-0,021	-0,052
-575,977	-200,000	-0,002	0,027
-574,963	651,348	-0,041	-0,079
-573,948	-30,600	0,142	0,059
-572,934	-200,000	-0,029	-0,123
-571,919	652,474	-0,054	-0,103
-570,904	800,000	-0,015	-0,045
-569,890	-200,000	0,006	-0,027
-568,875	-82,876	0,116	0,027
-567,861	-96,512	0,006	0,001
-566,846	-95,104	-0,080	0,016
-565,831	320,935	0,068	0,096
-564,817	-140,031	-0,068	-0,005
-563,802	761,041	0,053	-0,106
-562,788	-200,000	-0,012	0,104
-561,773	-57,519	0,019	0,006
-560,758	-24,200	0,136	-0,060
-559,744	-36,214	-0,018	0,007
-558,729	-153,012	0,061	0,003
-557,715	-119,113	0,087	0,011
-556,700	-200,000	0,019	-0,169
-555,685	800,000	-0,025	-0,073
-554,671	-20,258	-0,059	-0,027
-553,656	-10,320	-0,033	0,016
-552,642	-137,276	-0,093	-0,008
-551,627	698,358	-0,060	-0,118
-550,612	-110,654	0,140	-0,021
-549,598	800,000	0,031	0,090
-548,583	-74,646	-0,080	0,021
-547,569	-126,739	0,017	-0,002
-546,554	-66,638	0,032	-0,009
-545,539	-66,929	-0,092	-0,027
-544,525	148,126	0,046	-0,046
-543,510	229,314	0,092	-0,112
-542,496	-127,662	-0,109	0,012
-541,481	-8,815	0,103	0,051
-540,466	431,496	-0,052	0,083
-539,452	-30,433	0,048	0,020
-538,437	-200,000	-0,001	-0,078
-537,423	-200,000	0,004	-0,041
-536,408	-133,112	-0,202	-0,019
-535,393	-200,000	-0,012	-0,131
-534,379	-98,102	-0,057	0,011
-533,364	-200,000	0,004	0,050
-532,350	-200,000	-0,012	0,056
-531,335	51,464	-0,030	-0,021
-530,321	-200,000	-0,003	0,139
-529,306	445,087	-0,029	-0,047
-528,291	800,000	-0,062	-0,152
-527,277	0,709	-0,046	0,024
-526,262	-200,000	-0,000	-0,132
-525,248	-118,995	0,183	0,023
-524,233	324,612	-0,098	-0,139
-523,218	800,000	-0,024	-0,061
-522,204	-0,940	0,060	0,032
-521,189	27,602	-0,066	-0,041
-520,175	49,265	-0,090	0,063
-519,160	21,430	-0,054	0,032
-518,145	-48,183	0,093	-0,033
-517,131	-200,000	0,004	-0,135
-516,116	-147,967	-0,091	0,005
-515,102	800,000	0,056	0,121
-514,087	-200,000	-0,016	-0,102
-513,072	-200,000	-0,000	0,023
-512,058	-200,000	-0,006	-0,044
-511,043	54,479	-0,103	-0,073
-510,029	-200,000	-0,022	0,131
-509,014	202,269	0,079	0,090
-507,999	275,203	0,065	-0,086
-506,985	-91,995	0,124	0,026
-505,970	-200,000	0,010	-0,074
-504,956	-147,522	-0,093	-0,006
-503,941	-66,562	0,060	0,017
-502,926	-200,000	0,024	0,129
-501,912	197,555	0,172	-0,194
-500,897	-86,032	-0,163	-0,037
-499,883	33,985	-0,022	-0,014
-498,868	-28,625	0,073	0,031
-497,853	-200,000	-0,017	0,080
-496,839	-200,000	-0,026	-0,146
-495,824	800,000	0,068	0,222
-494,810	195,911	-0,064	0,071
-493,795	-1,311	0,085	-0,044
-492,781	80,927	0,044	0,035
-491,766	446,051	-0,067	-0,110
-490,751	-19,936	0,159	0,072
-489,737	155,466	-0,019	0,020
-488,722	42,300	0,043	-0,029
-487,708	-20,080	0,076	0,035
-486,693	-200,000	-0,006	-0,088
-485,678	-200,000	0,004	-0,088
-484,664	30,149	-0,207	-0,130
-483,649	141,265	-0,067	-0,066
-482,635	525,480	-0,098	-0,171
-481,620	167,918	0,047	0,050
-480,605	109,995	0,064	-0,056
-479,591	94,948	0,032	-0,027
-478,576	223,189	-0,019	0,023
-477,562	-31,495	0,070	-0,029
-476,547	9,848	0,092	-0,051
-475,532	800,000	0,036	-0,080
-474,518	-5,359	0,095	0,048
-473,503	-52,396	0,126	0,043
-472,489	-200,000	-0,015	0,053
-471,474	-200,000	0,048	0,205
-470,459	213,947	-0,101	0,118
-469,445	-19,892	-0,105	-0,048
-468,430	144,030	-0,034	0,033
-467,416	-200,000	0,020	-0,142
-466,401	512,882	0,109	0,188
-465,386	538,262	0,010	-0,018
-464,372	-72,100	-0,147	0,040
-463,357	800,000	-0,031	-0,072
-462,343	-200,000	-0,003	0,017
-461,328	-200,000	-0,012	-0,044
-460,313	-7,789	0,037	0,018
-459,299	180,322	0,074	0,080
-458,284	800,000	-0,011	0,032
-457,270	-92,053	-0,049	-0,010
-456,255	-200,000	-0,025	0,110
-455,241	-184,816	-0,150	0,002
-454,226	-180,758	0,061	0,001
-453,211	-200,000	0,079	0,000
-452,197	82,440	0,071	-0,057
-451,182	-22,561	-0,117	0,052
-450,168	-200,000	0,002	-0,041
-449,153	-9,359	-0,099	0,049
-448,138	800,000	0,019	0,058
-447,124	-42,582	0,062	-0,023
-446,109	-8,096	0,138	-0,068
-445,095	97,029	0,047	0,039
-444,080	7,599	-0,068	-0,037
-443,065	-200,000	-0,008	-0,081
-442,051	18,184	0,029	-0,017
-441,036	-6,985	0,115	-0,057
-440,022	-200,000	-0,036	-0,193
-439,007	116,948	-0,067	-0,061
-437,992	800,000	-0,048	0,148
-436,978	-200,000	-0,034	0,133
-435,963	-200,000	0,012	0,113
-434,949	6,891	0,066	0,036
-433,934	-43,578	-0,113	-0,042
-432,919	6,533	0,047	-0,025
-431,905	800,000	0,026	-0,072
-430,890	11,916	0,019	-0,011
-429,876	-200,000	0,008	0,089
-428,861	-200,000	0,011	0,090
-427,846	-150,099	-0,049	0,003
-426,832	-200,000	0,009	-0,079
-425,817	800,000	0,071	-0,183
-424,803	-12,443	0,082	0,039
-423,788	-52,458	-0,112	-0,038
-422,773	800,000	0,051	-0,136
-421,759	-77,319	-0,118	0,030
-420,744	800,000	0,042	0,096
-419,730	219,543	0,082	0,097
-418,715	31,922	-0,134	-0,084
-417,701	-158,692	0,088	-0,004
-416,686	368,819	-0,029	0,043
-415,671	-200,000	0,047	0,175
-414,657	320,951	0,040	0,056
-413,642	84,878	0,031	0,025
-412,628	-200,000	0,008	0,067
-411,613	-16,620	-0,120	-0,055
-410,598	800,000	0,028	0,077
-409,584	-104,059	0,016	-0,003
-408,569	-5,731	0,124	0,062
-407,555	-94,254	0,185	0,037
-406,540	-156,670	-0,206	-0,009
-405,525	-200,000	0,002	-0,055
-404,511	-75,699	-0,041	-0,011
-403,496	109,433	-0,028	-0,024
-402,482	-70,213	0,140	0,039
-401,467	-200,000	0,007	-0,057
-400,452	104,785	-0,031	0,027
-399,438	-178,549	0,043	-0,001
-398,423	-38,122	-0,058	-0,022
-397,409	232,246	-0,075	-0,090
-396,394	28,175	-0,055	-0,034
-395,379	-200,000	-0,008	-0,050
-394,365	-70,044	0,094	-0,026
-393,350	260,973	0,046	0,059
-392,336	191,987	0,020	-0,022
-391,321	23,077	-0,115	0,069
-390,306	-104,615	-0,195	0,033
-389,292	-103,271	-0,168	-0,029
-388,277	800,000	0,025	0,052
-387,263	366,259	0,084	0,125
-386,248	-67,449	-0,059	0,017
-385,233	-139,204	0,114	0,009
-384,219	688,214	-0,028	0,054
-383,204	-200,000	-0,003	-0,039
-382,190	23,331	0,076	-0,046
-381,175	-22,458	0,043	-0,019
-380,160	47,460	-0,121	0,083
-379,146	210,233	0,075	0,087
-378,131	430,336	0,036	-0,057
-377,117	-99,062	0,139	-0,026
-376,102	-200,000	-0,009	0,137
-375,088	-15,996	-0,078	-0,036
-374,073	-200,000	-0,008	-0,112
-373,058	136,443	0,070	0,068
-372,044	-200,000	-0,001	-0,039
-371,029	395,657	0,041	0,063
-370,015	130,337	0,113	0,107
-369,000	230,234	-0,058	-0,069
-367,985	-95,248	-0,059	-0,012
-366,971	-200,000	-0,011	0,103
-365,956	-102,177	0,125	0,022
-364,942	800,000	-0,042	0,108
-363,927	-200,000	0,000	0,024
-362,912	-200,000	-0,001	0,071
-361,898	46,265	-0,112	0,076
-360,883	-119,789	0,069	0,009
-359,869	800,000	-0,047	0,135
-358,854	-200,000	0,000	0,009
-357,839	127,827	0,045	0,042
-356,825	331,014	0,045	0,064
-355,810	-200,000	-0,002	0,058
-354,796	-7,063	-0,070	0,035
-353,781	471,894	-0,057	-0,094
-352,766	800,000	0,015	-0,043
-351,752	-89,841	-0,074	0,016
-350,737	-109,351	-0,023	-0,004
-349,723	-200,000	0,004	-0,083
-348,708	89,720	0,049	0,040
-347,693	22,369	0,015	-0,009
-346,679	116,816	-0,057	0,051
-345,664	-70,654	0,043	0,012
-344,650	-13,254	-0,069	0,033
-343,635	76,464	0,060	0,047
-342,620	706,845	-0,045	0,087
-341,606	-200,000	-0,011	-0,091
-340,591	-167,712	-0,075	-0,002
-339,577	800,000	-0,062	-0,128
-338,562	-130,688	-0,061	-0,006
-337,548	57,059	0,106	0,076
-336,533	-82,680	-0,021	0,005
-335,518	615,133	0,064	0,119
-334,504	322,312	-0,084	0,118
-333,489	-200,000	0,049	0,166
-332,475	800,000	0,024	-0,073
-331,460	617,946	0,065	-0,120
-330,445	-59,901	-0,098	-0,031
-329,431	800,000	0,027	0,073
-328,416	-97,927	0,101	0,019
-327,402	135,286	0,086	0,082
-326,387	181,143	-0,069	0,074
-325,372	-47,629	-0,128	-0,045
-324,358	-33,098	0,094	-0,038
-323,343	23,534	-0,115	-0,069
-322,329	118,224	0,041	-0,037
-321,314	-200,000	0,036	0,121
-320,299	800,000	0,031	0,072
-319,285	185,513	-0,036	0,039
-318,270	-28,434	0,133	-0,056
-317,256	495,778	0,011	-0,019
-316,241	-200,000	0,005	-0,049
-315,226	298,188	-0,027	-0,037
-314,212	-62,405	0,101	0,030
-313,197	91,355	0,074	0,061
-312,183	88,033	0,057	0,046
-311,168	-26,154	-0,066	0,028
-310,153	141,483	-0,061	-0,059
-309,139	-136,493	-0,134	0,011
-308,124	261,914	0,046	-0,059
-307,110	-99,259	0,174	-0,032
-306,095	485,699	-0,020	-0,034
-305,080	800,000	0,037	-0,119
-304,066	284,923	0,112	-0,149
-303,051	800,000	-0,021	-0,044
-302,037	776,905	-0,063	-0,127
-301,022	64,264	0,145	-0,107
-300,008	409,139	0,012	-0,019
-298,993	800,000	0,020	0,049
-297,978	309,399	-0,035	0,049
-296,964	-123,400	0,062	0,007
-295,949	229,941	-0,108	-0,130
-294,935	538,712	0,011	0,020
-293,920	117,967	0,068	-0,061
-292,905	246,342	0,094	-0,116
-291,891	800,000	-0,017	0,051
-290,876	98,488	0,056	-0,048
-289,862	-51,872	-0,244	0,083
-288,847	120,604	-0,122	0,111
-287,832	800,000	0,071	-0,225
-286,818	800,000	-0,024	0,052
-285,803	-124,747	-0,129	0,014
-284,789	-41,974	-0,020	0,007
-283,774	146,346	0,083	0,082
-282,759	-200,000	0,003	-0,026
-281,745	196,865	-0,111	-0,124
-280,730	234,277	0,062	-0,075
-279,716	-96,434	0,108	0,021
-278,701	74,963	0,121	-0,094
-277,686	-18,224	-0,064	-0,029
-276,672	-70,653	0,017	0,005
-275,657	800,000	0,023	0,066
-274,643	-96,475	-0,063	0,012
-273,628	-9,523	0,077	0,038
-272,613	377,750	-0,045	0,067
-271,599	-200,000	-0,013	-0,128
-270,584	-15,852	0,106	-0,049
-269,570	577,898	-0,074	0,133
-268,555	444,568	-0,046	0,075
-267,540	223,420	-0,110	-0,130
-266,526	106,954	-0,024	0,021
-265,511	-200,000	0,015	0,089
-264,497	47,871	-0,054	-0,037
-263,482	-37,225	0,049	-0,019
-262,467	-56,409	0,059	0,019
-261,453	-41,893	0,054	0,020
-260,438	101,743	-0,032	0,027
-259,424	357,741	-0,050	-0,073
-258,409	27,480	0,046	-0,028
-257,395	-200,000	-0,012	-0,097
-256,380	-200,000	0,012	0,061
-255,365	-200,000	0,011	0,087
-254,351	7,313	0,028	-0,015
-253,336	209,310	-0,069	-0,080
-252,322	448,000	0,044	-0,071
-251,307	-163,293	-0,081	-0,003
-250,292	-200,000	-0,009	-0,141
-249,278	118,212	0,108	0,098
-248,263	350,132	-0,075	0,109
-247,249	105,206	-0,079	0,068
-246,234	-200,000	-0,001	0,063
-245,219	163,767	0,119	-0,123
-244,205	64,006	-0,071	-0,052
-243,190	-96,507	0,025	-0,005
-242,176	322,386	0,074	-0,104
-241,161	51,942	-0,047	-0,032
-240,146	358,946	-0,127	-0,186
-239,132	-144,845	0,071	0,005
-238,117	-200,000	0,017	-0,066
-237,103	800,000	0,018	0,041
-236,088	55,487	-0,050	0,035
-235,073	180,876	0,046	-0,049
-234,059	-200,000	-0,006	0,110
-233,044	31,327	0,108	0,068
-232,030	29,353	-0,062	0,038
-231,015	42,410	-0,064	-0,043
-230,000	247,899	-0,033	-0,041
-228,986	-42,941	0,124	-0,046
-227,971	55,734	0,048	-0,034
-226,957	18,341	0,109	0,063
-225,942	800,000	0,016	-0,042
-224,927	333,371	0,072	0,102
-223,913	800,000	0,021	-0,044
-222,898	-200,000	-0,005	0,081
-221,884	496,760	-0,038	-0,065
-220,869	132,074	0,225	-0,212
-219,855	-200,000	0,008	-0,029
-218,840	-200,000	0,005	0,125
-217,825	322,934	-0,022	0,031
-216,811	-35,860	-0,073	0,029
-215,796	39,644	-0,063	-0,041
-214,782	-200,000	0,011	-0,060
-213,767	357,881	-0,091	-0,133
-212,752	-98,512	0,186	-0,034
-211,738	-200,000	0,000	-0,034
-210,723	686,435	-0,058	0,111
-209,709	-200,000	0,004	-0,088
-208,694	-51,781	0,060	-0,020
-207,679	-200,000	-0,010	0,073
-206,665	-200,000	-0,012	0,091
-205,650	-200,000	-0,014	0,197
-204,636	-150,271	0,071	0,004
-203,621	208,923	-0,068	-0,078
-202,606	-200,000	-0,006	0,021
-201,592	-16,089	0,063	0,029
-200,577	14,392	0,061	0,035
-199,563	-200,000	0,012	0,075
-198,548	281,225	-0,032	0,042
-197,533	-200,000	0,023	0,151
-196,519	41,805	-0,101	0,066
-195,504	-85,793	-0,028	-0,006
-194,490	-108,323	-0,083	0,013
-193,475	510,002	0,068	-0,115
-192,460	-149,012	-0,040	0,002
-191,446	-200,000	-0,026	0,148
-190,431	800,000	0,066	0,160
-189,417	800,000	-0,018	0,052
-188,402	115,962	0,027	0,024
-187,387	-125,125	0,028	-0,003
-186,373	-157,647	-0,199	-0,008
-185,358	104,304	0,022	0,019
-184,344	-200,000	-0,025	0,090
-183,329	-10,129	-0,059	0,028
-182,315	-200,000	0,007	0,187
-181,300	-200,000	0,006	0,059
-180,285	782,246	-0,030	0,059
-179,271	800,000	-0,037	-0,079
-178,256	800,000	0,020	0,043
-177,242	-65,105	0,073	0,021
-176,227	-200,000	-0,025	0,082
-175,212	-200,000	0,014	0,195
-174,198	-75,673	-0,035	0,009
-173,183	84,769	0,135	0,108
-172,169	-152,777	-0,057	-0,003
-171,154	-120,233	0,022	0,003
-170,139	367,814	0,027	0,040
-169,125	-200,000	-0,012	0,061
-168,110	-200,000	-0,036	0,174
-167,096	-200,000	0,015	0,087
-166,081	94,595	-0,035	-0,029
-165,066	228,441	-0,043	0,051
-164,052	-200,000	-0,010	0,049
-163,037	-143,517	0,133	-0,009
-162,023	-200,000	-0,019	0,075
-161,008	-200,000	0,018	0,082
-159,993	-80,939	0,134	0,032
-158,979	-200,000	-0,005	0,048
-157,964	385,621	-0,094	-0,142
-156,950	-200,000	0,006	-0,120
-155,935	314,226	0,082	-0,113
-154,920	408,231	0,065	-0,100
-153,906	106,958	-0,036	-0,031
-152,891	-55,459	-0,071	0,023
-151,877	642,056	-0,055	0,102
-150,862	800,000	-0,052	-0,159
-149,847	-200,000	-0,040	-0,153
-148,833	-35,716	0,163	0,064
-147,818	156,979	0,066	-0,066
-146,804	194,450	0,046	-0,051
-145,789	-200,000	0,006	-0,111
-144,775	23,974	0,060	-0,036
-143,760	800,000	0,026	-0,065
-142,745	2,008	0,051	-0,027
-141,731	-25,238	0,074	0,032
-140,716	-200,000	-0,016	0,099
-139,702	-51,567	0,113	0,038
-138,687	-62,237	-0,048	0,014
-137,672	-43,905	-0,071	0,026
-136,658	623,523	0,047	-0,086
-135,643	800,000	-0,032	-0,075
-134,629	-200,000	-0,034	0,118
-133,614	503,774	0,101	0,171
-132,599	-200,000	-0,001	0,007
-131,585	-124,808	-0,038	-0,004
-130,570	-200,000	-0,002	-0,108
-129,556	477,367	0,036	-0,060
-128,541	-135,392	-0,058	0,005
-127,526	-132,749	0,049	0,004
-126,512	748,926	0,059	0,116
-125,497	-47,129	-0,092	-0,032
-124,483	-200,000	-0,001	-0,019
-123,468	-200,000	-0,005	-0,022
-122,453	-110,239	-0,132	-0,020
-121,439	73,153	-0,081	-0,061
-120,424	-22,458	0,120	-0,052
-119,410	-118,671	0,052	-0,007
-118,395	-110,700	0,089	0,013
-117,380	-142,678	0,058	-0,004
-116,366	-24,442	0,103	-0,044
-115,351	113,271	-0,034	-0,030
-114,337	-20,990	-0,074	-0,033
-113,322	13,485	0,095	0,054
-112,307	415,283	0,072	0,113
-111,293	-200,000	0,018	0,065
-110,278	-200,000	-0,014	-0,053
-109,264	-95,131	0,122	-0,024
-108,249	-200,000	0,014	0,044
-107,234	172,134	0,015	-0,015
-106,220	-200,000	-0,005	0,031
-105,205	-200,000	0,013	-0,045
-104,191	-78,332	0,133	0,033
-103,176	-38,251	0,075	-0,029
-102,162	-200,000	-0,018	0,111
-101,147	6,551	0,139	0,075
-100,132	-200,000	-0,045	-0,208
-99,118	-22,121	0,096	-0,042
-98,103	285,888	0,044	-0,058
-97,089	-200,000	0,009	-0,053
-96,074	-140,100	0,061	0,005
-95,059	628,677	-0,029	-0,054
-94,045	-151,691	0,063	0,003
-93,030	800,000	0,046	0,122
-92,016	-200,000	-0,023	-0,164
-91,001	-200,000	-0,010	0,072
-89,986	40,724	-0,122	0,080
-88,972	-200,000	-0,026	0,210
-87,957	-200,000	0,014	-0,053
-86,943	-200,000	-0,014	0,105
-85,928	556,018	-0,098	-0,173
-84,913	730,025	-0,037	-0,071
-83,899	800,000	-0,050	-0,101
-82,884	100,335	0,135	0,114
-81,870	-37,957	0,053	0,020
-80,855	-56,874	-0,060	0,019
-79,840	-137,075	0,075	-0,006
-78,826	-200,000	-0,013	-0,058
-77,811	-155,892	-0,038	0,002
-76,797	30,728	-0,122	-0,076
-75,782	-33,163	-0,091	0,036
-74,767	-81,371	0,131	-0,031
-73,753	-29,598	-0,080	-0,033
-72,738	-200,000	-0,002	-0,009
-71,724	-30,411	0,085	-0,035
-70,709	-190,408	-0,080	-0,001
-69,694	28,351	-0,130	-0,080
-68,680	-61,657	0,053	0,016
-67,665	113,841	0,039	-0,035
-66,651	549,356	0,075	0,130
-65,636	-200,000	0,017	-0,086
-64,622	-200,000	-0,035	0,120
-63,607	-200,000	-0,017	-0,076
-62,592	30,129	-0,049	-0,030
-61,578	168,203	0,033	-0,034
-60,563	-23,709	0,036	-0,016
-59,549	60,105	-0,054	0,038
-58,534	-126,128	-1,156	0,124
-57,519	466,990	-0,929	-1,516
-56,505	-200,000	-0,821	-4,308
-55,490	-18,207	0,661	-0,299
-54,476	800,000	4,707	11,653
-53,461	-200,000	12,870	243,384
-52,446	-200,000	685,252	2250,817
-51,432	602,477	1621,828	2935,995
-50,417	123,941	1636,627	1490,429
-49,403	76,623	1292,416	992,861
-48,388	39,968	1027,517	667,880
-47,373	25,359	984,811	592,055
-46,359	24,538	974,844	583,340
-45,344	23,651	970,753	577,966
-44,330	23,572	969,206	576,763
-43,315	23,475	967,789	575,580
-42,300	23,497	966,519	574,875
-41,286	23,443	965,748	574,218
-40,271	23,453	964,864	573,702
-39,257	23,427	964,050	573,111
-38,242	23,504	962,975	572,698
-37,227	23,431	962,257	572,014
-36,213	23,461	961,267	571,497
-35,198	23,454	960,470	570,979
-34,184	23,510	959,670	570,662
-33,169	23,404	958,847	569,806
-32,154	23,479	957,999	569,522
-31,140	23,419	956,963	568,690
-30,125	23,413	956,317	568,263
-29,111	23,450	955,443	567,841
-28,096	23,479	954,668	567,452
-27,082	23,480	954,159	567,129
-26,067	23,503	953,329	566,687
-25,052	23,512	952,512	566,209
-24,038	23,464	951,967	565,708
-23,023	23,440	951,235	565,174
-22,009	23,550	950,508	565,072
-20,994	23,515	949,980	564,623
-19,979	23,487	949,380	564,155
-18,965	23,427	948,779	563,583
-17,950	23,440	948,152	563,231
-16,936	23,427	947,293	562,656
-15,921	23,425	946,728	562,293
-14,906	23,391	945,907	561,674
-13,892	23,362	945,385	561,250
-12,877	23,323	944,846	560,784
-11,863	23,325	944,134	560,343
-10,848	23,366	943,603	560,138
-9,833	23,436	943,140	560,063
-8,819	23,404	942,670	559,661
-7,804	23,344	941,903	558,991
-6,790	23,338	941,258	558,569
-5,775	23,431	940,709	558,514
-4,760	23,418	939,908	557,976
-3,746	23,392	939,342	557,537
-2,731	23,213	938,857	556,657
-1,717	23,190	937,825	555,953
-0,702	23,123	937,315	555,415
0,313	22,906	936,896	555,320
1,327	25,470	934,130	561,705
2,342	33,279	813,486	510,403
3,356	28,689	512,695	313,781
4,371	4,627	375,346	199,041
5,386	1,670	358,162	186,274
6,400	0,163	351,989	181,224
7,415	-0,816	349,172	178,581
8,429	-0,915	347,584	177,635
9,444	-0,978	346,720	177,102
10,459	-0,786	345,963	176,928
11,473	-0,839	345,430	176,577
12,488	-0,499	345,037	176,764
13,502	-0,389	344,380	176,541
14,517	-0,561	343,735	175,992
15,531	-0,729	343,331	175,571
16,546	-0,773	342,827	175,245
17,561	-0,824	342,454	174,979
18,575	-0,708	341,974	174,854
19,590	-0,893	341,801	174,533
20,604	-0,868	341,344	174,313
21,619	-0,839	340,790	174,049
22,634	-0,889	340,615	173,886
23,648	-0,966	340,248	173,593
24,663	-1,041	340,028	173,378
25,677	-0,716	339,613	173,530
26,692	-0,781	339,261	173,259
27,707	-0,766	339,003	173,129
28,721	-0,855	338,674	172,842
29,736	-0,963	338,406	172,564
30,750	-0,816	337,995	172,510
31,765	-0,839	337,809	172,373
32,780	-0,838	337,548	172,225
33,794	-0,869	337,229	172,011
34,809	-0,951	337,057	171,813
35,823	-0,808	336,576	171,719
36,838	-0,799	336,355	171,601
37,853	-1,006	336,182	171,259
38,867	-0,977	335,957	171,162
39,882	-0,839	335,592	171,120
40,896	-0,839	335,233	170,921
41,911	-0,973	334,958	170,612
42,926	-1,000	334,801	170,486
43,940	-1,082	334,454	170,199
44,955	-0,966	334,116	170,145
45,969	-1,218	333,995	169,780
46,984	-1,237	333,637	169,561
47,999	-1,247	333,336	169,381
49,013	-1,384	332,974	169,026
50,028	-1,429	332,646	168,793
51,042	-1,569	332,480	168,534
52,057	-1,582	332,059	168,290
53,071	-1,553	331,853	168,204
54,086	-1,498	331,807	168,228
55,101	-1,463	331,381	168,037
56,115	-1,184	331,299	168,298
57,130	-0,894	331,116	168,520
58,144	-0,826	330,934	168,488
59,159	-0,835	330,697	168,342
60,174	-0,615	330,459	168,456
61,188	-0,740	330,137	168,135
62,203	-0,772	329,907	167,966
63,217	-0,787	329,820	167,890
64,232	-0,622	329,227	167,759
65,247	-0,481	329,072	167,824
66,261	-0,652	328,955	167,557
67,276	-1,023	328,566	166,927
68,290	-1,026	328,355	166,802
69,305	-0,946	327,963	166,678
70,320	-1,232	327,859	166,288
71,334	-1,065	327,663	166,361
72,349	-0,808	327,441	166,522
73,363	-0,733	327,202	166,469
74,378	-0,710	327,016	166,386
75,393	-0,731	326,741	166,207
76,407	-0,722	326,292	165,975
77,422	-0,770	326,297	165,909
78,436	-0,708	325,889	165,756
79,451	-0,718	325,644	165,605
80,466	-0,917	325,434	165,262
81,480	-0,960	325,078	165,018
82,495	-1,248	324,794	164,539
83,509	-1,022	324,770	164,764
84,524	-1,022	324,352	164,537
85,539	-1,151	324,016	164,209
86,553	-1,110	323,716	164,088
87,568	-1,046	323,576	164,074
88,582	-1,077	323,298	163,883
89,597	-1,154	323,093	163,680
90,611	-0,999	322,874	163,725
91,626	-0,870	322,806	163,818
92,641	-0,904	322,621	163,672
93,655	-0,876	322,191	163,470
94,670	-0,880	321,931	163,319
95,684	-0,869	321,843	163,272
96,699	-1,040	321,581	162,937
97,714	-0,954	321,259	162,854
98,728	-1,106	321,098	162,591
99,743	-1,060	320,776	162,464
100,757	-1,181	320,441	162,147
101,772	-1,142	320,306	162,107
102,787	-1,041	320,088	162,093
103,801	-1,005	319,933	162,038
104,816	-1,051	319,953	161,985
105,830	-0,827	319,529	161,999
106,845	-0,764	319,402	161,990
107,860	-0,907	319,223	161,728
108,874	-0,815	318,844	161,622
109,889	-1,091	318,614	161,191
110,903	-1,016	318,444	161,172
111,918	-1,120	318,210	160,927
112,933	-0,896	317,832	160,964
113,947	-0,944	317,753	160,857
114,962	-0,867	317,502	160,800
115,976	-0,888	317,167	160,592
116,991	-0,895	317,139	160,557
118,006	-0,830	316,930	160,507
119,020	-0,809	316,823	160,462
120,035	-0,790	316,578	160,343
121,049	-0,741	316,360	160,271
122,064	-0,768	316,094	160,092
123,079	-0,839	315,777	159,842
124,093	-0,843	315,488	159,677
125,108	-1,077	315,265	159,299
126,122	-1,289	314,953	158,899
127,137	-1,349	314,623	158,654
128,151	-1,120	314,503	158,825
129,166	-1,155	314,292	158,667
130,181	-1,175	314,016	158,491
131,195	-1,320	313,834	158,231
132,210	-1,012	313,728	158,492
133,224	-0,844	313,397	158,490
134,239	-0,793	313,378	158,521
135,254	-0,849	313,134	158,324
136,268	-0,961	312,788	158,015
137,283	-1,183	312,413	157,576
138,297	-1,354	312,239	157,292
139,312	-1,178	312,098	157,393
140,327	-0,998	311,929	157,486
141,341	-0,806	311,968	157,695
142,356	-0,605	311,678	157,747
143,370	-0,538	311,507	157,719
144,385	-0,449	311,158	157,621
145,400	-0,563	311,046	157,430
146,414	-0,640	310,725	157,173
147,429	-0,578	310,624	157,172
148,443	-0,590	310,433	157,049
149,458	-0,442	310,050	156,998
150,473	-0,474	310,006	156,928
151,487	-0,615	309,729	156,624
152,502	-0,576	309,542	156,558
153,516	-0,741	309,233	156,214
154,531	-0,654	309,099	156,223
155,546	-0,679	308,916	156,091
156,560	-0,741	308,689	155,897
157,575	-0,871	308,357	155,579
158,589	-0,835	308,141	155,494
159,604	-0,598	307,898	155,606
160,619	-0,684	307,735	155,419
161,633	-0,449	307,433	155,499
162,648	-0,709	307,389	155,190
163,662	-0,515	307,190	155,280
164,677	-0,607	307,064	155,105
165,692	-0,496	306,863	155,106
166,706	-0,599	306,605	154,854
167,721	-0,712	306,366	154,603
168,735	-0,689	306,158	154,508
169,750	-0,529	306,018	154,589
170,764	-0,505	305,910	154,546
171,779	-0,500	305,747	154,454
172,794	-0,419	305,531	154,416
173,808	-0,759	305,250	153,908
174,823	-0,912	304,831	153,524
175,837	-1,273	304,602	153,023
176,852	-0,705	304,598	153,595
177,867	-0,555	304,461	153,666
178,881	-0,535	304,413	153,649
179,896	-0,570	304,084	153,433
180,910	-0,451	303,786	153,391
181,925	-0,551	303,818	153,292
182,940	-0,499	303,492	153,166
183,954	-0,441	303,347	153,139
184,969	-0,508	303,009	152,886
185,983	-0,562	302,776	152,699
186,998	-0,504	302,656	152,685
188,013	-0,437	302,431	152,626
189,027	-0,432	302,180	152,491
190,042	-0,419	302,016	152,408
191,056	-0,363	301,957	152,422
192,071	-0,421	301,653	152,195
193,086	-0,362	301,548	152,190
194,100	-0,452	301,345	151,982
195,115	-0,375	301,000	151,873
196,129	-0,203	300,602	151,834
197,144	-0,391	300,493	151,574
198,159	-0,490	300,439	151,432
199,173	-0,434	300,180	151,345
200,188	-0,499	300,093	151,222
201,202	-0,482	299,681	151,017
202,217	-1,028	299,384	150,302
203,232	-1,059	299,178	150,154
204,246	-0,657	299,090	150,502
205,261	-0,371	298,878	150,671
206,275	-0,371	298,778	150,608
207,290	-0,393	298,505	150,435
208,304	-0,464	298,422	150,307
209,319	-0,467	298,187	150,172
210,334	-0,363	297,837	150,088
211,348	-0,436	297,716	149,939
212,363	-0,328	297,363	149,857
213,377	-0,579	297,477	149,649
214,392	-0,466	297,149	149,584
215,407	-0,650	296,930	149,276
216,421	-0,710	296,649	149,061
217,436	-0,686	296,424	148,959
218,450	-0,449	296,076	149,007
219,465	-0,573	296,196	148,930
220,480	-0,421	295,960	148,950
221,494	-0,560	295,871	148,753
222,509	-0,502	295,633	148,678
223,523	-0,393	295,399	148,657
224,538	-0,341	295,245	148,618
225,553	-0,350	295,103	148,523
226,567	-0,333	294,888	148,419
227,582	-0,472	294,764	148,205
228,596	-0,364	294,636	148,236
229,611	-0,246	294,461	148,251
230,626	-0,409	294,161	147,925
231,640	-0,769	293,611	147,278
232,655	-1,079	293,414	146,860
233,669	-1,042	293,215	146,783
234,684	-1,183	293,126	146,587
235,699	-1,108	293,085	146,627
236,713	-0,799	292,763	146,758
237,728	-0,642	292,533	146,785
238,742	-0,734	292,552	146,691
239,757	-0,443	292,394	146,885
240,772	-0,525	292,170	146,679
241,786	-0,463	292,179	146,731
242,801	-0,808	291,701	146,138
243,815	-0,814	291,605	146,072
244,830	-0,765	291,419	146,013
245,844	-0,708	291,194	145,943
246,859	-0,841	290,975	145,690
247,874	-0,768	290,641	145,582
248,888	-0,881	290,769	145,522
249,903	-0,381	290,412	145,820
250,917	-0,324	290,341	145,827
251,932	-0,223	290,303	145,893
252,947	0,261	290,320	146,362
253,961	-0,077	289,943	145,829
254,976	0,475	290,195	146,482
255,990	2,764	290,550	148,884
257,005	3,032	290,884	149,304
258,020	4,131	291,027	150,438
259,034	4,407	290,867	150,612
260,049	4,163	290,736	150,293
261,063	3,999	290,387	149,939
262,078	4,239	290,420	150,176
263,093	4,666	290,427	150,583
264,107	4,878	290,237	150,676
265,122	4,702	290,085	150,413
266,136	4,938	289,928	150,548
267,151	4,996	289,707	150,475
268,166	4,675	289,414	149,999
269,180	4,557	289,116	149,717
270,195	4,641	289,152	149,803
271,209	4,927	288,631	149,797
272,224	4,771	288,662	149,648
273,239	4,650	288,395	149,380
274,253	4,399	288,183	149,014
275,268	4,931	288,182	149,514
276,282	5,075	288,018	149,554
277,297	4,866	287,767	149,209
278,312	5,148	287,586	149,375
279,326	4,891	287,424	149,029
280,341	4,860	287,234	148,888
281,355	4,564	286,993	148,465
282,370	4,555	286,726	148,305
283,384	4,460	286,580	148,125
284,399	4,537	286,498	148,144
285,414	4,667	286,328	148,167
286,428	4,554	285,976	147,864
287,443	4,333	285,710	147,501
288,457	4,390	285,502	147,435
289,472	4,318	285,412	147,306
290,487	4,298	285,217	147,174
291,501	4,282	284,938	147,001
292,516	4,042	284,786	146,682
293,530	4,122	284,518	146,606
294,545	4,400	284,378	146,786
295,560	4,645	284,149	146,887
296,574	4,111	284,107	146,345
297,589	4,205	283,983	146,357
298,603	4,793	283,997	146,910
299,618	4,804	283,653	146,729
300,633	4,545	283,523	146,403
301,647	4,550	283,242	146,250
302,662	4,474	283,127	146,106
303,676	4,464	282,774	145,901
304,691	4,156	282,511	145,461
305,706	3,953	282,425	145,212
306,720	4,185	282,143	145,273
307,735	3,956	281,997	144,970
308,749	4,174	281,957	145,141
309,764	4,252	281,814	145,128
310,779	4,092	281,439	144,771
311,793	4,006	281,337	144,626
312,808	4,100	281,149	144,605
313,822	4,126	281,005	144,541
314,837	4,003	280,669	144,241
315,852	3,872	280,572	144,055
316,866	3,935	280,458	144,043
317,881	4,122	280,235	144,090
318,895	4,108	280,051	143,970
319,910	3,873	279,783	143,600
320,925	3,834	279,561	143,437
321,939	4,065	279,505	143,611
322,954	4,033	279,391	143,509
323,968	4,163	279,357	143,600
324,983	4,284	279,188	143,613
325,997	4,114	278,933	143,311
327,012	4,376	278,797	143,472
328,027	4,384	278,618	143,375
329,041	4,207	278,555	143,166
330,056	4,322	278,320	143,139
331,070	4,311	277,954	142,927
332,085	4,241	277,712	142,725
333,100	4,265	277,601	142,677
334,114	4,215	277,404	142,518
335,129	3,958	277,297	142,212
336,143	4,353	277,184	142,506
337,158	4,586	276,902	142,563
338,173	4,448	276,699	142,319
339,187	4,351	276,595	142,163
340,202	4,370	276,385	142,061
341,216	4,365	276,195	141,945
342,231	4,262	276,006	141,741
343,246	4,216	275,886	141,625
344,260	4,277	275,773	141,610
345,275	4,419	275,725	141,702
346,289	4,648	275,729	141,903
347,304	4,611	275,336	141,654
348,319	4,386	275,094	141,310
349,333	4,445	274,811	141,206
350,348	4,619	274,729	141,311
351,362	4,686	274,628	141,308
352,377	4,503	274,387	141,004
353,392	4,733	274,199	141,105
354,406	4,689	274,187	141,046
355,421	191,919	1331,816	1412,064
356,435	155,115	1460,786	1412,200
