DTS Sentinel unit serial number:	SN410029Multiplexer serial number:	ORYXHardware model number:	OX2-SRSoftware version number:	ORYX F/W v4,00 Oryx Data Collector v3.7.2.0data status	okinstallation	B4 Nyhavnadifferential loss correction	single-endedforward channel	channel 2reverse channel	N/Adate	2023/12/16time	11:45:13forward acquisition time	300,00reverse acquisition time	0,00gamma	499,1914k internal	0,3126k external	0,3126temperature offset calibration	1,0000default loss term (dB/km)	0,3820temperature slope calibration	1,0000multiplexer offset coefficient	1,0000multiplexer slope coefficient	1,0000fibre end	0,00T internal ref (°C)	23,87T ext. ref 1 (°C)	9,68T ext. ref 2 (°C)	9,88length (m)	temperature (°C)	Stokes	anti-Stokes-744,400	-161,806	0,054	0,002
-743,385	-10,060	-0,212	0,105
-742,371	-200,000	0,019	-0,072
-741,356	-54,136	-0,136	0,046
-740,342	8,737	0,051	-0,028
-739,327	-20,919	-0,261	0,119
-738,312	52,000	-0,082	-0,058
-737,298	-56,684	-0,212	0,069
-736,283	-200,000	0,019	-0,126
-735,269	125,211	-0,165	0,155
-734,254	80,467	0,070	-0,056
-733,239	-69,184	-0,390	-0,111
-732,225	114,063	0,051	-0,046
-731,210	-41,176	0,060	0,023
-730,196	138,835	-0,058	0,057
-729,181	321,780	0,019	0,027
-728,167	223,053	-0,069	-0,083
-727,152	134,370	0,036	-0,035
-726,137	49,970	-0,045	0,032
-725,123	-200,000	0,006	0,040
-724,108	89,030	-0,088	-0,073
-723,094	782,773	-0,091	-0,185
-722,079	167,558	-0,028	0,030
-721,064	-200,000	0,008	-0,049
-720,050	-200,000	0,004	-0,117
-719,035	-200,000	-0,002	-0,158
-718,021	800,000	-0,034	-0,072
-717,006	499,887	-0,107	-0,185
-715,991	800,000	0,021	-0,062
-714,977	38,199	0,010	0,007
-713,962	238,683	-0,018	0,022
-712,948	649,345	0,067	-0,128
-711,933	-200,000	0,031	0,128
-710,918	6,683	-0,021	0,011
-709,904	147,919	-0,101	-0,102
-708,889	-200,000	-0,017	0,070
-707,875	60,751	0,061	-0,045
-706,860	49,533	-0,072	-0,050
-705,845	144,168	0,065	-0,065
-704,831	-200,000	-0,013	0,175
-703,816	-167,940	-0,119	0,003
-702,802	-24,473	0,004	-0,002
-701,787	-40,327	-0,163	-0,063
-700,772	28,139	-0,112	-0,070
-699,758	-200,000	-0,017	-0,057
-698,743	612,718	-0,021	0,040
-697,729	-5,277	0,083	0,042
-696,714	-200,000	-0,028	-0,155
-695,699	130,409	-0,033	-0,032
-694,685	45,497	0,032	-0,022
-693,670	800,000	-0,007	-0,018
-692,656	-95,029	0,136	-0,027
-691,641	-34,592	-0,191	-0,077
-690,627	-200,000	-0,004	0,063
-689,612	130,243	0,057	-0,054
-688,597	-200,000	-0,000	-0,153
-687,583	-26,759	-0,111	0,048
-686,568	425,711	0,085	0,137
-685,554	-152,605	-0,115	0,006
-684,539	130,533	0,093	-0,088
-683,524	169,006	0,065	0,069
-682,510	447,105	-0,060	0,098
-681,495	-177,984	-0,040	-0,001
-680,481	-200,000	-0,007	-0,118
-679,466	-91,521	-0,051	0,011
-678,451	800,000	-0,018	-0,041
-677,437	-200,000	0,000	-0,091
-676,422	9,842	0,073	0,041
-675,408	342,217	-0,028	0,041
-674,393	-1,481	-0,102	0,053
-673,378	40,038	-0,115	0,076
-672,364	394,731	-0,052	-0,081
-671,349	74,679	-0,096	-0,075
-670,335	800,000	0,020	-0,062
-669,320	684,321	0,023	0,044
-668,305	-13,597	-0,124	0,060
-667,291	67,490	-0,124	-0,094
-666,276	800,000	0,022	-0,052
-665,262	-200,000	0,009	-0,055
-664,247	250,424	-0,098	-0,124
-663,232	88,895	0,018	-0,015
-662,218	200,035	-0,058	0,067
-661,203	-200,000	0,012	-0,055
-660,189	115,070	0,017	-0,015
-659,174	-200,000	0,024	-0,116
-658,159	323,898	-0,049	0,070
-657,145	800,000	0,029	-0,085
-656,130	43,043	0,088	-0,060
-655,116	137,520	0,063	-0,061
-654,101	382,881	0,014	0,021
-653,086	-130,959	0,109	-0,011
-652,072	-44,525	-0,128	-0,047
-651,057	-73,568	-0,255	-0,068
-650,043	198,625	-0,091	-0,104
-649,028	-200,000	-0,006	-0,041
-648,014	47,763	0,012	0,008
-646,999	800,000	0,027	0,079
-645,984	68,639	0,067	-0,051
-644,970	11,673	-0,137	0,078
-643,955	-1,686	-0,036	0,019
-642,941	84,854	-0,039	0,032
-641,926	413,156	0,072	-0,113
-640,911	-62,215	0,151	0,046
-639,897	-20,761	0,069	0,031
-638,882	-200,000	0,001	0,060
-637,868	800,000	0,041	0,127
-636,853	-200,000	0,027	-0,134
-635,838	-200,000	0,014	0,085
-634,824	-200,000	0,003	-0,052
-633,809	800,000	-0,035	0,074
-632,795	-200,000	0,004	0,023
-631,780	136,518	0,049	-0,048
-630,765	104,865	-0,135	-0,118
-629,751	-200,000	-0,003	-0,174
-628,736	-200,000	-0,017	-0,061
-627,722	-23,623	0,066	0,029
-626,707	-3,638	-0,166	-0,085
-625,692	32,527	0,055	0,035
-624,678	200,637	0,049	0,056
-623,663	-150,923	-0,159	0,009
-622,649	-200,000	-0,007	-0,025
-621,634	376,676	-0,066	-0,101
-620,619	-200,000	0,001	-0,126
-619,605	607,552	0,074	-0,138
-618,590	-107,446	-0,106	0,017
-617,576	800,000	0,055	-0,154
-616,561	800,000	-0,058	0,130
-615,546	478,375	-0,026	0,043
-614,532	-200,000	-0,029	-0,298
-613,517	340,639	0,022	-0,032
-612,503	800,000	0,031	0,075
-611,488	-200,000	-0,018	-0,064
-610,474	-76,121	0,098	-0,025
-609,459	-96,925	-0,056	-0,011
-608,444	-112,690	-0,089	0,013
-607,430	-200,000	0,015	-0,120
-606,415	-88,051	-0,122	0,027
-605,401	178,447	0,100	-0,108
-604,386	800,000	0,014	0,042
-603,371	118,988	-0,074	0,067
-602,357	48,145	-0,037	0,025
-601,342	-17,441	-0,127	-0,059
-600,328	497,853	0,020	0,033
-599,313	38,486	-0,156	-0,103
-598,298	24,367	0,043	0,026
-597,284	171,745	0,072	0,077
-596,269	-27,268	0,066	0,028
-595,255	360,008	-0,042	-0,063
-594,240	-161,461	-0,140	0,005
-593,225	62,730	-0,090	0,067
-592,211	404,588	0,058	-0,091
-591,196	-61,763	-0,091	0,028
-590,182	12,120	0,164	0,093
-589,167	-200,000	-0,001	-0,012
-588,152	800,000	-0,027	-0,078
-587,138	-96,753	-0,028	0,005
-586,123	208,700	-0,027	-0,031
-585,109	82,827	-0,174	-0,140
-584,094	-200,000	-0,007	-0,070
-583,079	-200,000	-0,003	-0,043
-582,065	144,171	-0,078	-0,077
-581,050	-166,600	0,049	-0,001
-580,036	-122,452	0,108	-0,013
-579,021	126,966	-0,114	-0,107
-578,006	-200,000	-0,019	-0,083
-576,992	-5,625	0,108	-0,054
-575,977	-200,000	-0,020	0,176
-574,963	291,868	0,089	0,120
-573,948	-12,619	0,070	0,034
-572,934	-25,459	-0,054	-0,023
-571,919	304,384	0,082	-0,113
-570,904	307,527	-0,047	-0,065
-569,890	-92,746	-0,025	-0,005
-568,875	281,985	-0,048	-0,063
-567,861	-131,546	0,097	0,009
-566,846	-200,000	-0,001	0,078
-565,831	384,991	-0,027	0,041
-564,817	482,065	0,040	-0,068
-563,802	800,000	-0,010	0,026
-562,788	-200,000	-0,053	-0,180
-561,773	-200,000	0,012	-0,069
-560,758	58,534	0,072	-0,052
-559,744	-17,097	0,102	-0,048
-558,729	-200,000	0,008	0,103
-557,715	460,028	0,053	-0,087
-556,700	800,000	0,072	-0,186
-555,685	800,000	-0,063	-0,162
-554,671	17,447	0,044	0,026
-553,656	800,000	0,034	0,111
-552,642	-89,236	-0,111	-0,024
-551,627	-47,062	-0,090	-0,032
-550,612	-17,347	0,028	-0,013
-549,598	-200,000	0,010	-0,059
-548,583	-200,000	0,031	-0,119
-547,569	800,000	0,050	-0,136
-546,554	-200,000	-0,004	-0,018
-545,539	-200,000	0,002	0,011
-544,525	43,620	0,121	0,082
-543,510	94,360	-0,025	0,021
-542,496	-200,000	0,003	-0,100
-541,481	-115,016	-0,063	0,009
-540,466	-200,000	0,002	0,094
-539,452	-92,440	-0,098	-0,020
-538,437	170,851	-0,069	-0,073
-537,423	50,612	0,053	0,037
-536,408	800,000	-0,034	-0,096
-535,393	-200,000	0,007	0,100
-534,379	-200,000	-0,005	-0,018
-533,364	800,000	0,028	-0,065
-532,350	89,052	-0,091	-0,075
-531,335	379,823	0,037	0,056
-530,321	-200,000	0,015	0,072
-529,306	148,004	0,077	0,076
-528,291	285,599	-0,094	0,126
-527,277	116,479	-0,134	-0,122
-526,262	259,484	0,035	0,044
-525,248	800,000	0,011	0,030
-524,233	644,339	0,045	0,086
-523,218	-122,566	-0,148	0,018
-522,204	-200,000	0,011	-0,038
-521,189	-85,834	-0,108	-0,024
-520,175	449,527	0,024	-0,040
-519,160	-200,000	-0,030	-0,124
-518,145	7,881	-0,093	-0,051
-517,131	800,000	-0,036	0,100
-516,116	800,000	-0,015	0,034
-515,102	-200,000	-0,004	-0,103
-514,087	-26,886	-0,142	-0,061
-513,072	-200,000	-0,024	-0,078
-512,058	800,000	0,010	0,023
-511,043	-143,250	0,118	0,008
-510,029	-200,000	-0,020	0,091
-509,014	-200,000	0,024	-0,088
-507,999	800,000	0,009	-0,023
-506,985	26,840	-0,087	0,054
-505,970	-200,000	-0,012	-0,056
-504,956	800,000	0,065	-0,148
-503,941	171,421	0,028	-0,029
-502,926	649,312	0,081	0,154
-501,912	41,644	0,038	0,025
-500,897	-15,604	-0,136	-0,064
-499,883	-200,000	-0,022	-0,098
-498,868	-113,698	0,032	0,004
-497,853	-36,117	0,122	-0,049
-496,839	80,968	-0,046	0,037
-495,824	312,337	-0,045	0,063
-494,810	18,231	0,139	-0,082
-493,795	311,138	0,028	-0,039
-492,781	800,000	-0,053	0,172
-491,766	-65,511	-0,095	-0,028
-490,751	92,732	-0,097	-0,081
-489,737	-7,058	-0,017	-0,009
-488,722	-32,358	-0,066	-0,027
-487,708	43,810	-0,121	0,081
-486,693	-200,000	-0,007	0,051
-485,678	177,852	-0,035	0,038
-484,664	-51,260	0,039	0,013
-483,649	45,102	0,020	0,014
-482,635	-124,406	0,115	0,013
-481,620	602,140	0,032	0,059
-480,605	-10,543	0,043	0,021
-479,591	255,084	-0,097	0,122
-478,576	-81,916	-0,051	-0,012
-477,562	50,071	0,100	-0,069
-476,547	309,999	0,010	0,014
-475,532	85,436	0,090	0,073
-474,518	590,698	-0,036	0,066
-473,503	261,146	0,031	0,040
-472,489	-200,000	0,003	0,038
-471,474	65,387	-0,045	0,034
-470,459	800,000	-0,058	0,139
-469,445	177,985	-0,075	-0,081
-468,430	209,866	-0,116	-0,134
-467,416	-108,987	0,100	0,016
-466,401	-29,061	0,065	0,027
-465,386	-43,729	0,131	0,048
-464,372	423,176	-0,054	0,085
-463,357	17,783	-0,065	-0,038
-462,343	-200,000	-0,030	-0,183
-461,328	-132,743	-0,072	0,007
-460,313	81,032	-0,090	-0,072
-459,299	379,611	0,063	0,095
-458,284	-200,000	0,005	0,119
-457,270	94,668	-0,101	0,084
-456,255	16,999	0,076	-0,044
-455,241	-72,110	-0,060	-0,016
-454,226	133,377	-0,040	0,038
-453,211	82,139	-0,059	0,047
-452,197	800,000	0,037	-0,088
-451,182	75,148	0,067	0,052
-450,168	800,000	0,038	0,110
-449,153	45,738	-0,019	-0,013
-448,138	800,000	-0,010	0,030
-447,124	18,532	0,114	0,067
-446,109	-200,000	0,012	0,099
-445,095	84,265	0,024	0,019
-444,080	24,615	-0,056	0,034
-443,065	-200,000	-0,047	0,187
-442,051	-71,033	0,170	0,047
-441,036	-183,850	0,056	0,001
-440,022	-200,000	0,050	-0,219
-439,007	623,414	0,029	-0,054
-437,992	-200,000	-0,027	0,093
-436,978	-169,834	0,115	-0,003
-435,963	-200,000	0,021	0,176
-434,949	800,000	-0,004	0,012
-433,934	-104,547	0,115	-0,019
-432,919	187,905	0,110	0,121
-431,905	714,526	0,057	-0,111
-430,890	-70,824	-0,078	-0,022
-429,876	-200,000	0,002	0,069
-428,861	-200,000	-0,008	-0,065
-427,846	324,267	0,120	0,169
-426,832	81,874	-0,040	0,032
-425,817	-200,000	0,002	-0,053
-424,803	800,000	0,057	-0,152
-423,788	98,708	-0,022	-0,019
-422,773	-55,355	-0,173	-0,057
-421,759	-21,321	0,101	0,045
-420,744	134,437	0,070	0,067
-419,730	800,000	-0,046	0,145
-418,715	-200,000	-0,016	-0,122
-417,701	-200,000	0,010	0,050
-416,686	-200,000	0,019	-0,102
-415,671	25,344	0,067	0,041
-414,657	-148,334	0,116	-0,007
-413,642	211,182	0,130	0,151
-412,628	270,524	-0,029	-0,037
-411,613	66,001	-0,072	-0,053
-410,598	-74,003	-0,036	0,010
-409,584	-37,286	0,163	0,064
-408,569	167,058	0,105	0,110
-407,555	-154,955	0,110	0,005
-406,540	-200,000	0,001	0,064
-405,525	-74,845	0,060	0,016
-404,511	-74,130	-0,034	-0,009
-403,496	-95,558	-0,089	-0,017
-402,482	-200,000	0,011	-0,083
-401,467	-2,228	0,101	0,052
-400,452	249,541	0,124	0,155
-399,438	800,000	0,051	-0,142
-398,423	-200,000	-0,002	-0,126
-397,409	800,000	-0,051	-0,144
-396,394	-200,000	-0,009	-0,057
-395,379	767,641	-0,016	-0,032
-394,365	800,000	-0,054	0,135
-393,350	-200,000	-0,024	0,122
-392,336	128,866	-0,029	-0,027
-391,321	800,000	-0,045	0,106
-390,306	800,000	0,024	-0,073
-389,292	-200,000	0,012	-0,130
-388,277	399,836	0,099	-0,153
-387,263	99,266	-0,065	0,055
-386,248	-85,961	-0,061	0,014
-385,233	-195,678	0,011	0,000
-384,219	-30,973	-0,114	0,047
-383,204	-200,000	-0,000	0,098
-382,190	174,991	-0,039	-0,041
-381,175	-93,162	-0,169	-0,034
-380,160	40,062	0,172	0,114
-379,146	-91,025	0,096	-0,020
-378,131	-200,000	0,000	0,102
-377,117	121,440	0,052	-0,048
-376,102	-97,407	-0,166	0,031
-375,088	-46,352	0,091	-0,033
-374,073	-49,282	0,103	-0,036
-373,058	-146,866	0,155	0,010
-372,044	-65,686	-0,090	0,026
-371,029	352,728	0,024	-0,034
-370,015	-122,533	0,103	-0,012
-369,000	86,314	-0,089	-0,072
-367,985	-200,000	0,006	-0,197
-366,971	-146,211	0,011	0,001
-365,956	-200,000	-0,035	0,142
-364,942	283,477	0,069	0,092
-363,927	-200,000	0,026	0,132
-362,912	25,999	-0,053	0,032
-361,898	800,000	0,007	-0,021
-360,883	-200,000	-0,007	-0,051
-359,869	-139,036	0,038	-0,003
-358,854	-200,000	-0,003	0,094
-357,839	86,584	0,094	0,076
-356,825	88,341	0,052	-0,042
-355,810	50,998	0,014	-0,009
-354,796	-127,908	-0,209	-0,022
-353,781	105,168	0,055	-0,048
-352,766	-17,377	-0,046	-0,021
-351,752	269,388	-0,030	-0,039
-350,737	245,296	-0,049	-0,061
-349,723	-110,373	-0,062	-0,009
-348,708	-34,147	0,097	-0,039
-347,693	-59,004	-0,088	0,028
-346,679	57,421	-0,062	-0,045
-345,664	-38,574	0,042	-0,016
-344,650	352,293	0,049	0,071
-343,635	256,423	-0,150	0,190
-342,620	206,731	0,070	0,080
-341,606	-200,000	0,007	0,091
-340,591	-200,000	-0,060	0,194
-339,577	-200,000	-0,025	0,099
-338,562	-200,000	0,017	-0,128
-337,548	160,866	0,168	-0,173
-336,533	-200,000	-0,031	-0,168
-335,518	191,311	0,075	0,083
-334,504	-116,792	0,060	-0,008
-333,489	800,000	0,067	0,154
-332,475	-67,821	-0,158	-0,045
-331,460	-200,000	-0,007	-0,097
-330,445	53,912	0,099	-0,070
-329,431	800,000	0,014	-0,047
-328,416	-163,220	0,133	0,005
-327,402	420,212	-0,015	0,023
-326,387	70,949	-0,102	-0,077
-325,372	-91,722	-0,122	-0,025
-324,358	42,183	-0,103	-0,068
-323,343	33,917	-0,141	-0,090
-322,329	-57,103	-0,008	-0,003
-321,314	113,099	-0,049	-0,044
-320,299	800,000	0,067	0,178
-319,285	-106,872	0,007	0,001
-318,270	-37,242	0,039	-0,015
-317,256	-83,150	0,055	0,013
-316,241	-36,818	-0,093	-0,036
-315,226	800,000	-0,022	0,069
-314,212	-89,499	0,131	-0,028
-313,197	281,580	0,083	-0,110
-312,183	-200,000	-0,003	-0,084
-311,168	260,582	-0,051	-0,065
-310,153	-200,000	0,001	-0,082
-309,139	606,083	0,058	0,106
-308,124	43,695	-0,100	-0,067
-307,110	-200,000	-0,013	-0,075
-306,095	164,356	0,051	-0,053
-305,080	330,471	-0,026	-0,036
-304,066	82,255	0,099	-0,079
-303,051	-45,903	0,092	-0,033
-302,037	-140,386	-0,110	-0,008
-301,022	624,246	-0,005	0,008
-300,008	-19,171	0,138	0,062
-298,993	800,000	-0,025	0,052
-297,978	-200,000	-0,016	0,122
-296,964	800,000	-0,038	0,105
-295,949	-138,295	-0,158	0,013
-294,935	225,157	-0,033	0,040
-293,920	-89,840	-0,134	0,028
-292,905	-200,000	-0,010	0,073
-291,891	800,000	-0,067	0,167
-290,876	-200,000	-0,023	0,106
-289,862	-200,000	0,011	0,132
-288,847	271,692	-0,066	-0,086
-287,832	-200,000	-0,003	0,027
-286,818	554,917	0,045	-0,080
-285,803	800,000	-0,033	-0,075
-284,789	316,803	0,031	0,043
-283,774	218,710	0,088	0,103
-282,759	800,000	0,016	0,051
-281,745	800,000	-0,029	-0,061
-280,730	138,888	0,048	0,046
-279,716	-41,310	-0,058	0,022
-278,701	289,452	0,010	-0,014
-277,686	-82,667	0,025	-0,006
-276,672	47,189	0,098	0,067
-275,657	169,358	-0,095	0,099
-274,643	-86,277	-0,096	-0,021
-273,628	172,235	-0,036	0,038
-272,613	-112,726	-0,045	0,006
-271,599	644,265	0,019	-0,036
-270,584	-63,275	0,210	0,063
-269,570	54,710	0,020	-0,014
-268,555	574,056	0,034	0,061
-267,540	-18,895	-0,054	0,025
-266,526	68,391	0,051	-0,038
-265,511	-200,000	0,010	0,151
-264,497	-18,907	0,154	0,070
-263,482	-12,067	0,100	-0,048
-262,467	-4,263	-0,100	-0,050
-261,453	-200,000	-0,002	0,157
-260,438	-200,000	0,020	0,173
-259,424	653,070	-0,037	0,070
-258,409	107,400	0,026	-0,023
-257,395	-141,570	0,069	-0,005
-256,380	-184,495	0,137	-0,002
-255,365	-200,000	0,006	0,035
-254,351	-101,872	-0,003	0,000
-253,336	800,000	-0,036	0,102
-252,322	390,350	0,029	0,044
-251,307	-200,000	-0,015	0,220
-250,292	800,000	-0,005	0,012
-249,278	-200,000	-0,007	-0,091
-248,263	-29,288	0,050	-0,021
-247,249	800,000	-0,033	0,092
-246,234	-105,521	-0,162	-0,027
-245,219	248,946	0,019	-0,024
-244,205	-64,947	-0,174	0,051
-243,190	134,873	-0,052	-0,049
-242,176	56,532	0,129	0,091
-241,161	40,723	-0,071	0,047
-240,146	18,563	0,069	0,040
-239,132	390,011	-0,048	-0,072
-238,117	-35,040	-0,254	0,101
-237,103	-32,879	0,069	0,028
-236,088	-200,000	-0,011	-0,077
-235,073	38,268	0,078	-0,050
-234,059	-166,778	0,133	0,004
-233,044	-200,000	-0,028	0,115
-232,030	478,703	-0,062	-0,103
-231,015	146,194	-0,085	-0,083
-230,000	135,882	-0,042	-0,040
-228,986	50,413	-0,132	-0,091
-227,971	-200,000	-0,008	0,163
-226,957	800,000	0,002	0,005
-225,942	116,294	-0,051	-0,046
-224,927	7,611	0,095	0,052
-223,913	144,677	-0,093	-0,091
-222,898	-18,204	0,125	0,057
-221,884	-200,000	-0,007	0,054
-220,869	127,749	-0,017	0,016
-219,855	56,381	0,192	0,136
-218,840	-76,227	0,173	0,044
-217,825	770,628	-0,061	-0,121
-216,811	-194,151	-0,121	0,001
-215,796	800,000	0,024	-0,069
-214,782	538,572	-0,063	-0,110
-213,767	-97,699	-0,147	-0,028
-212,752	-83,242	0,114	0,026
-211,738	-88,559	-0,103	0,022
-210,723	111,378	0,084	-0,074
-209,709	-136,054	0,112	-0,009
-208,694	-200,000	-0,011	-0,156
-207,679	-200,000	-0,007	-0,151
-206,665	110,991	-0,031	-0,027
-205,650	800,000	-0,028	0,065
-204,636	-23,697	-0,100	0,044
-203,621	-200,000	0,003	0,140
-202,606	-68,023	-0,066	-0,019
-201,592	-177,343	-0,096	-0,002
-200,577	332,724	0,111	-0,157
-199,563	174,544	0,014	-0,015
-198,548	-106,044	0,086	0,014
-197,533	223,661	-0,053	-0,063
-196,519	-129,221	0,094	-0,009
-195,504	-79,544	0,033	0,008
-194,490	-118,144	0,076	-0,010
-193,475	800,000	0,018	-0,041
-192,460	-43,804	-0,060	-0,022
-191,446	23,625	0,080	-0,048
-190,431	800,000	-0,028	0,056
-189,417	109,969	-0,036	-0,032
-188,402	-46,976	0,029	-0,010
-187,387	-5,611	-0,028	0,014
-186,373	-1,662	-0,055	-0,028
-185,358	102,001	-0,077	0,066
-184,344	75,612	0,106	-0,082
-183,329	30,457	0,151	-0,094
-182,315	15,363	-0,060	0,034
-181,300	-128,072	0,032	0,003
-180,285	-200,000	0,006	0,042
-179,271	-200,000	0,009	0,041
-178,256	686,144	0,023	0,045
-177,242	461,116	0,122	0,199
-176,227	800,000	-0,075	0,192
-175,212	93,375	-0,005	-0,004
-174,198	-19,052	0,028	0,013
-173,183	221,210	0,015	0,018
-172,169	438,594	-0,052	-0,082
-171,154	-39,075	-0,120	0,046
-170,139	-200,000	-0,025	-0,102
-169,125	-80,942	0,007	-0,002
-168,110	-14,683	0,127	0,059
-167,096	5,848	0,076	0,041
-166,081	-200,000	-0,042	-0,180
-165,066	573,752	-0,028	-0,050
-164,052	15,696	-0,025	0,014
-163,037	-69,444	0,058	-0,016
-162,023	178,814	0,086	0,091
-161,008	-200,000	-0,002	-0,071
-159,993	800,000	0,021	0,063
-158,979	-200,000	0,007	-0,055
-157,964	116,745	-0,067	0,060
-156,950	-200,000	-0,016	0,125
-155,935	-12,234	-0,101	-0,048
-154,920	84,624	0,004	-0,003
-153,906	-200,000	-0,025	-0,133
-152,891	37,571	0,043	0,028
-151,877	430,733	-0,073	0,116
-150,862	289,026	-0,067	-0,089
-149,847	180,671	0,034	0,036
-148,833	369,967	0,108	-0,160
-147,818	602,901	-0,024	-0,044
-146,804	-140,734	-0,099	-0,007
-145,789	234,357	-0,009	-0,011
-144,775	-92,893	0,006	0,001
-143,760	57,150	-0,065	0,046
-142,745	-200,000	0,012	0,161
-141,731	522,446	-0,037	-0,064
-140,716	4,526	-0,109	0,058
-139,702	-110,007	0,248	-0,037
-138,687	150,967	0,080	-0,079
-137,672	-200,000	0,011	-0,075
-136,658	-125,746	0,040	0,004
-135,643	505,859	0,033	0,056
-134,629	-200,000	-0,024	0,153
-133,614	-113,873	-0,088	0,012
-132,599	-5,664	0,064	-0,032
-131,585	69,893	0,057	-0,043
-130,570	445,986	0,039	0,063
-129,556	584,223	-0,052	-0,094
-128,541	129,156	0,043	-0,040
-127,526	-200,000	-0,004	-0,113
-126,512	104,454	0,004	0,003
-125,497	-66,801	0,119	-0,034
-124,483	800,000	0,015	0,044
-123,468	493,533	0,016	-0,027
-122,453	-57,571	-0,039	0,012
-121,439	-29,849	-0,020	0,008
-120,424	-200,000	0,018	0,082
-119,410	800,000	-0,038	0,082
-118,395	149,712	0,029	0,029
-117,380	-18,774	0,109	0,049
-116,366	800,000	-0,016	-0,049
-115,351	-64,966	0,101	0,029
-114,337	-200,000	-0,004	-0,053
-113,322	-136,558	-0,102	0,008
-112,307	172,365	0,029	-0,030
-111,293	-99,192	0,031	-0,006
-110,278	-62,548	-0,072	-0,021
-109,264	21,509	-0,129	-0,076
-108,249	-6,759	-0,131	-0,065
-107,234	119,704	0,040	0,036
-106,220	-200,000	0,010	0,036
-105,205	110,329	-0,059	0,051
-104,191	84,648	0,060	-0,047
-103,176	255,006	-0,055	0,069
-102,162	606,754	0,053	0,096
-101,147	63,631	0,123	-0,090
-100,132	-40,623	-0,212	0,080
-99,118	-66,703	0,005	0,002
-98,103	251,489	0,064	0,079
-97,089	-200,000	-0,022	0,106
-96,074	236,826	0,070	0,084
-95,059	-53,398	0,085	0,028
-94,045	156,497	-0,055	0,056
-93,030	-200,000	-0,036	-0,231
-92,016	800,000	-0,033	0,090
-91,001	-200,000	0,002	-0,090
-89,986	195,429	0,058	-0,064
-88,972	265,173	0,030	0,038
-87,957	-90,140	-0,085	-0,018
-86,943	-200,000	0,017	-0,075
-85,928	-108,359	-0,058	0,009
-84,913	399,958	-0,025	-0,039
-83,899	-89,912	0,049	0,010
-82,884	647,933	0,025	0,046
-81,870	-2,356	0,182	-0,092
-80,855	-145,948	-0,105	0,007
-79,840	243,122	-0,025	-0,030
-78,826	-77,033	0,102	-0,026
-77,811	-200,000	0,002	-0,053
-76,797	-47,756	-0,082	0,029
-75,782	-157,119	0,034	-0,001
-74,767	600,625	0,034	-0,062
-73,753	392,413	0,048	-0,072
-72,738	-200,000	0,001	0,076
-71,724	-200,000	-0,036	-0,260
-70,709	112,977	0,054	-0,047
-69,694	-118,172	0,049	0,006
-68,680	123,610	-0,066	-0,060
-67,665	-200,000	0,012	0,068
-66,651	287,019	0,009	0,012
-65,636	-200,000	-0,020	-0,110
-64,622	-154,413	-0,130	0,006
-63,607	-101,760	-0,116	-0,020
-62,592	800,000	-0,016	-0,040
-61,578	800,000	-0,006	-0,013
-60,563	45,000	-0,091	-0,061
-59,549	-200,000	-0,001	0,125
-58,534	-98,916	-1,131	0,206
-57,519	517,835	-0,921	-1,568
-56,505	-200,000	-0,773	-4,200
-55,490	52,407	0,631	-0,436
-54,476	800,000	4,849	11,510
-53,461	-200,000	12,481	237,363
-52,446	-200,000	683,003	2225,760
-51,432	594,274	1623,153	2921,748
-50,417	125,671	1640,418	1501,614
-49,403	79,280	1296,755	1006,678
-48,388	41,135	1031,683	674,374
-47,373	25,794	988,684	595,658
-46,359	24,918	978,734	586,751
-45,344	24,091	974,440	581,439
-44,330	23,988	972,977	580,205
-43,315	23,954	971,453	579,163
-42,300	23,877	970,600	578,380
-41,286	23,869	969,577	577,720
-40,271	23,914	968,575	577,248
-39,257	23,855	967,766	576,550
-38,242	23,927	966,781	576,176
-37,227	23,965	965,877	575,737
-36,213	23,813	965,080	574,744
-35,198	23,869	964,049	574,289
-34,184	23,917	963,330	573,993
-33,169	23,822	962,556	573,204
-32,154	23,887	961,596	572,817
-31,140	23,900	960,718	572,314
-30,125	23,887	960,041	571,848
-29,111	23,933	959,026	571,366
-28,096	23,892	958,274	570,764
-27,082	23,857	957,750	570,316
-26,067	23,864	956,930	569,828
-25,052	23,950	956,080	569,576
-24,038	23,871	955,536	568,975
-23,023	23,918	954,912	568,732
-22,009	23,920	954,160	568,271
-20,994	23,986	953,589	568,120
-19,979	24,015	952,780	567,706
-18,965	23,880	952,284	566,956
-17,950	23,892	951,791	566,677
-16,936	23,857	950,881	566,002
-15,921	23,884	950,220	565,674
-14,906	23,823	949,499	565,026
-13,892	23,850	948,868	564,715
-12,877	23,807	948,256	564,191
-11,863	23,730	947,615	563,541
-10,848	23,725	947,269	563,296
-9,833	23,872	946,662	563,382
-8,819	23,820	946,103	562,860
-7,804	23,813	945,360	562,376
-6,790	23,771	944,831	561,903
-5,775	23,828	944,159	561,665
-4,760	23,890	943,436	561,409
-3,746	23,753	943,086	560,743
-2,731	23,702	942,095	559,969
-1,717	23,595	941,518	559,264
-0,702	23,633	940,696	558,874
0,313	23,396	940,260	558,707
1,327	25,968	937,935	565,402
2,342	34,232	816,760	514,903
3,356	29,970	514,300	316,878
4,371	5,393	376,197	200,423
5,386	2,124	358,981	187,207
6,400	0,677	352,658	182,139
7,415	-0,116	349,837	179,712
8,429	-0,218	348,351	178,810
9,444	-0,317	347,476	178,227
10,459	-0,333	346,735	177,812
11,473	-0,305	346,090	177,498
12,488	0,103	345,719	177,778
13,502	-0,001	345,129	177,335
14,517	0,015	344,758	177,147
15,531	-0,379	343,922	176,236
16,546	-0,410	343,317	175,874
17,561	-0,492	343,118	175,660
18,575	-0,327	342,646	175,596
19,590	-0,480	342,277	175,212
20,604	-0,389	341,945	175,132
21,619	-0,529	341,407	174,678
22,634	-0,343	341,117	174,732
23,648	-0,621	340,910	174,285
24,663	-0,335	340,599	174,444
25,677	-0,283	340,215	174,293
26,692	-0,403	340,137	174,097
27,707	-0,411	339,758	173,878
28,721	-0,556	339,498	173,561
29,736	-0,514	339,208	173,446
30,750	-0,467	338,850	173,302
31,765	-0,564	338,569	173,030
32,780	-0,442	338,301	173,020
33,794	-0,438	337,974	172,842
34,809	-0,442	337,797	172,731
35,823	-0,521	337,429	172,435
36,838	-0,546	337,099	172,223
37,853	-0,420	336,777	172,189
38,867	-0,404	336,462	172,031
39,882	-0,550	336,345	171,788
40,896	-0,622	336,136	171,582
41,911	-0,523	335,742	171,479
42,926	-0,494	335,488	171,368
43,940	-0,438	335,071	171,205
44,955	-0,523	334,866	170,986
45,969	-0,699	334,678	170,673
46,984	-0,926	334,402	170,258
47,999	-0,955	333,920	169,964
49,013	-1,040	333,666	169,722
50,028	-1,087	333,295	169,464
51,042	-1,081	333,090	169,352
52,057	-1,118	332,822	169,158
53,071	-1,174	332,538	168,935
54,086	-1,079	332,291	168,903
55,101	-1,014	332,105	168,866
56,115	-0,845	331,983	168,982
57,130	-0,433	331,989	169,439
58,144	-0,341	331,701	169,381
59,159	-0,274	331,342	169,258
60,174	-0,345	331,118	169,048
61,188	-0,273	330,852	168,979
62,203	-0,403	330,761	168,771
63,217	-0,333	330,406	168,654
64,232	-0,197	330,088	168,630
65,247	-0,088	329,934	168,659
66,261	-0,198	329,548	168,323
67,276	-0,506	329,097	167,730
68,290	-0,726	328,840	167,337
69,305	-0,764	328,718	167,218
70,320	-0,763	328,394	167,039
71,334	-0,529	328,183	167,179
72,349	-0,404	328,245	167,336
73,363	-0,165	327,865	167,395
74,378	-0,132	327,496	167,230
75,393	-0,200	327,174	166,973
76,407	-0,232	326,920	166,794
77,422	-0,412	326,850	166,541
78,436	-0,452	326,648	166,379
79,451	-0,275	326,280	166,374
80,466	-0,391	326,066	166,122
81,480	-0,487	325,548	165,736
82,495	-0,698	325,399	165,411
83,509	-0,561	325,286	165,491
84,524	-0,636	324,956	165,224
85,539	-0,874	324,647	164,789
86,553	-0,782	324,508	164,805
87,568	-0,713	324,075	164,648
88,582	-0,658	323,907	164,609
89,597	-0,842	323,964	164,418
90,611	-0,548	323,614	164,551
91,626	-0,406	323,513	164,643
92,641	-0,392	323,217	164,493
93,655	-0,536	322,841	164,127
94,670	-0,520	322,732	164,075
95,684	-0,569	322,460	163,868
96,699	-0,447	322,253	163,883
97,714	-0,677	322,014	163,494
98,728	-0,754	321,690	163,230
99,743	-0,788	321,436	163,050
100,757	-0,729	321,149	162,953
101,772	-0,863	321,017	162,726
102,787	-0,668	320,730	162,779
103,801	-0,652	320,594	162,714
104,816	-0,455	320,376	162,803
105,830	-0,445	320,193	162,707
106,845	-0,353	320,039	162,715
107,860	-0,323	319,723	162,571
108,874	-0,415	319,355	162,270
109,889	-0,215	319,037	162,312
110,903	-0,406	318,978	162,059
111,918	-0,519	318,649	161,755
112,933	-0,527	318,497	161,655
113,947	-0,302	318,405	161,837
114,962	-0,370	318,135	161,612
115,976	-0,408	317,897	161,436
116,991	-0,436	317,710	161,297
118,006	-0,432	317,485	161,172
119,020	-0,442	317,442	161,125
120,035	-0,231	317,239	161,236
121,049	-0,363	316,923	160,918
122,064	-0,260	316,631	160,867
123,079	-0,337	316,416	160,660
124,093	-0,342	316,156	160,508
125,108	-0,423	315,728	160,189
126,122	-0,707	315,557	159,783
127,137	-0,877	315,296	159,455
128,151	-0,869	315,190	159,395
129,166	-0,837	315,071	159,354
130,181	-0,643	314,588	159,304
131,195	-0,827	314,363	158,979
132,210	-0,580	314,325	159,210
133,224	-0,312	314,082	159,360
134,239	-0,391	313,967	159,202
135,254	-0,319	313,585	159,071
136,268	-0,497	313,348	158,748
137,283	-0,643	312,858	158,329
138,297	-0,841	312,891	158,122
139,312	-0,850	312,549	157,924
140,327	-0,409	312,522	158,365
141,341	-0,318	312,497	158,435
142,356	-0,053	312,324	158,616
143,370	-0,076	312,049	158,436
144,385	-0,133	311,840	158,256
145,400	-0,145	311,657	158,136
146,414	-0,122	311,446	158,039
147,429	-0,079	311,258	157,976
148,443	-0,173	311,021	157,742
149,458	0,046	310,688	157,790
150,473	-0,085	310,616	157,602
151,487	-0,254	310,328	157,262
152,502	-0,020	310,123	157,391
153,516	-0,170	309,786	157,049
154,531	-0,059	309,742	157,129
155,546	-0,011	309,488	157,036
156,560	-0,136	309,273	156,783
157,575	-0,366	308,871	156,323
158,589	-0,293	308,827	156,364
159,604	-0,199	308,582	156,325
160,619	-0,267	308,378	156,136
161,633	-0,087	308,191	156,215
162,648	-0,243	308,002	155,943
163,662	-0,236	307,848	155,858
164,677	-0,351	307,813	155,707
165,692	-0,167	307,433	155,692
166,706	-0,086	307,213	155,651
167,721	-0,041	306,979	155,565
168,735	-0,106	306,764	155,376
169,750	-0,150	306,684	155,275
170,764	-0,006	306,514	155,324
171,779	0,006	306,450	155,291
172,794	-0,034	306,041	155,028
173,808	-0,161	305,877	154,800
174,823	-0,507	305,419	154,196
175,837	-0,742	305,132	153,794
176,852	-0,242	305,073	154,268
177,867	0,063	305,051	154,559
178,881	-0,097	304,940	154,322
179,896	-0,095	304,664	154,171
180,910	-0,023	304,418	154,108
181,925	0,150	304,212	154,167
182,940	0,099	304,118	154,054
183,954	-0,078	303,921	153,758
184,969	-0,084	303,717	153,635
185,983	-0,139	303,266	153,337
186,998	-0,127	303,148	153,276
188,013	-0,038	302,954	153,255
189,027	-0,021	302,839	153,201
190,042	0,201	302,603	153,295
191,056	0,173	302,485	153,193
192,071	0,058	302,321	152,979
193,086	0,088	302,103	152,886
194,100	0,150	301,856	152,811
195,115	0,022	301,451	152,461
196,129	0,034	301,341	152,404
197,144	0,042	301,086	152,269
198,159	0,142	300,942	152,284
199,173	0,205	300,619	152,172
200,188	0,114	300,550	152,031
201,202	-0,083	300,226	151,653
202,217	-0,591	299,892	150,956
203,232	-0,549	299,636	150,856
204,246	-0,104	299,528	151,239
205,261	0,083	299,468	151,384
206,275	0,086	299,204	151,240
207,290	0,098	299,194	151,235
208,304	0,094	298,958	151,098
209,319	0,108	298,807	151,021
210,334	0,106	298,570	150,887
211,348	0,127	298,387	150,802
212,363	0,181	298,138	150,716
213,377	0,013	298,044	150,486
214,392	0,283	297,792	150,618
215,407	-0,169	297,490	149,997
216,421	-0,153	297,133	149,820
217,436	-0,217	297,016	149,683
218,450	-0,161	296,859	149,646
219,465	-0,004	296,728	149,724
220,480	-0,043	296,582	149,599
221,494	0,076	296,370	149,597
222,509	-0,016	296,319	149,466
223,523	0,078	295,939	149,356
224,538	0,127	295,828	149,335
225,553	0,278	295,639	149,377
226,567	0,136	295,575	149,190
227,582	0,113	295,345	149,038
228,596	0,194	295,272	149,068
229,611	0,148	295,033	148,889
230,626	0,151	294,764	148,742
231,640	-0,365	294,438	148,052
232,655	-0,563	294,023	147,634
233,669	-0,694	293,652	147,304
234,684	-0,622	293,753	147,414
235,699	-0,529	293,481	147,356
236,713	-0,475	293,254	147,282
237,728	-0,315	293,258	147,429
238,742	-0,024	293,021	147,584
239,757	-0,098	292,938	147,456
240,772	0,058	292,892	147,574
241,786	0,041	292,544	147,369
242,801	-0,137	292,250	147,032
243,815	-0,347	292,235	146,805
244,830	-0,162	292,035	146,873
245,844	-0,383	291,808	146,529
246,859	-0,203	291,475	146,525
247,874	-0,435	291,402	146,248
248,888	-0,421	291,231	146,163
249,903	-0,079	291,114	146,426
250,917	0,042	291,002	146,475
251,932	0,246	290,924	146,623
252,947	0,746	290,963	147,119
253,961	0,652	290,638	146,850
254,976	0,759	290,733	146,989
255,990	2,583	291,097	148,945
257,005	3,263	291,358	149,730
258,020	4,370	291,552	150,900
259,034	4,500	291,371	150,920
260,049	4,351	291,162	150,653
261,063	4,039	290,728	150,111
262,078	4,315	290,718	150,360
263,093	4,923	290,796	150,980
264,107	4,778	290,621	150,735
265,122	4,813	290,633	150,762
266,136	4,982	290,436	150,811
267,151	5,039	290,203	150,731
268,166	4,978	289,910	150,506
269,180	4,794	289,540	150,123
270,195	4,747	289,330	149,955
271,209	4,860	289,289	150,029
272,224	4,852	289,017	149,868
273,239	4,478	288,864	149,413
274,253	4,666	288,718	149,506
275,268	4,956	288,695	149,761
276,282	4,943	288,421	149,593
277,297	4,863	288,294	149,436
278,312	5,123	288,101	149,574
279,326	4,994	287,866	149,314
280,341	5,032	287,567	149,182
281,355	4,613	287,547	148,755
282,370	4,549	287,167	148,484
283,384	4,456	286,915	148,252
284,399	4,753	286,815	148,472
285,414	4,867	286,644	148,479
286,428	4,599	286,402	148,084
287,443	4,276	286,132	147,622
288,457	4,307	285,999	147,570
289,472	4,345	285,920	147,552
290,487	4,455	285,572	147,464
291,501	4,401	285,348	147,284
292,516	4,177	285,104	146,931
293,530	4,094	285,048	146,810
294,545	4,459	284,925	147,082
295,560	4,605	284,618	147,049
296,574	4,160	284,497	146,550
297,589	4,302	284,411	146,628
298,603	4,864	284,287	147,084
299,618	4,966	284,086	147,064
300,633	4,873	283,929	146,882
301,647	4,561	283,743	146,476
302,662	4,784	283,349	146,471
303,676	4,452	283,206	146,070
304,691	4,239	283,117	145,810
305,706	3,994	282,769	145,387
306,720	4,286	282,520	145,521
307,735	4,088	282,386	145,252
308,749	4,304	282,311	145,404
309,764	4,411	282,251	145,461
310,779	4,221	281,901	145,089
311,793	4,097	281,664	144,838
312,808	4,139	281,576	144,819
313,822	4,090	281,297	144,617
314,837	4,181	280,985	144,528
315,852	4,013	280,929	144,329
316,866	4,221	280,719	144,403
317,881	4,133	280,700	144,298
318,895	4,345	280,394	144,326
319,910	3,993	280,195	143,882
320,925	3,957	279,914	143,692
321,939	4,162	279,881	143,853
322,954	4,311	279,777	143,926
323,968	4,234	279,656	143,779
324,983	4,424	279,342	143,781
325,997	4,622	279,208	143,884
327,012	4,552	279,061	143,730
328,027	4,512	278,813	143,552
329,041	4,423	278,681	143,389
330,056	4,613	278,467	143,443
331,070	4,448	278,366	143,225
332,085	4,261	278,139	142,922
333,100	4,287	277,933	142,827
334,114	4,230	277,788	142,687
335,129	4,281	277,432	142,539
336,143	4,524	277,387	142,727
337,158	4,439	277,439	142,663
338,173	4,421	277,284	142,554
339,187	4,277	276,918	142,220
340,202	4,332	276,934	142,267
341,216	4,373	276,678	142,160
342,231	4,444	276,387	142,064
343,246	4,371	276,110	141,841
344,260	4,296	276,008	141,707
345,275	4,669	275,785	141,923
346,289	4,966	275,772	142,175
347,304	4,809	275,706	141,985
348,319	4,577	275,408	141,607
349,333	4,445	275,267	141,400
350,348	4,704	275,110	141,544
351,362	4,733	274,979	141,491
352,377	4,753	274,820	141,414
353,392	4,753	274,703	141,342
354,406	4,826	274,511	141,296
355,421	192,505	1333,860	1415,730
356,435	155,613	1463,041	1415,887
