DTS Sentinel unit serial number:	SN410029Multiplexer serial number:	ORYXHardware model number:	OX2-SRSoftware version number:	ORYX F/W v4,00 Oryx Data Collector v3.7.2.0data status	okinstallation	B4 Nyhavnadifferential loss correction	single-endedforward channel	channel 2reverse channel	N/Adate	2023/12/19time	08:05:13forward acquisition time	300,00reverse acquisition time	0,00gamma	499,1914k internal	0,3126k external	0,3126temperature offset calibration	1,0000default loss term (dB/km)	0,3820temperature slope calibration	1,0000multiplexer offset coefficient	1,0000multiplexer slope coefficient	1,0000fibre end	0,00T internal ref (°C)	20,95T ext. ref 1 (°C)	5,41T ext. ref 2 (°C)	5,49length (m)	temperature (°C)	Stokes	anti-Stokes-744,400	119,387	-0,058	-0,054
-743,385	-56,457	-0,202	0,066
-742,371	297,176	-0,013	-0,018
-741,356	-112,180	-0,121	0,018
-740,342	-4,394	0,045	0,023
-739,327	-103,279	-0,411	-0,072
-738,312	-200,000	0,001	-0,047
-737,298	-74,961	-0,148	0,039
-736,283	217,708	0,101	-0,120
-735,269	195,762	-0,192	0,218
-734,254	-194,878	0,037	-0,000
-733,239	-55,955	-0,498	-0,165
-732,225	111,269	0,202	0,181
-731,210	-138,674	-0,099	-0,008
-730,196	-200,000	0,025	-0,165
-729,181	-148,501	0,048	0,003
-728,167	553,850	0,033	-0,060
-727,152	33,752	-0,033	0,022
-726,137	130,302	-0,121	0,115
-725,123	107,287	-0,078	0,069
-724,108	173,812	-0,082	-0,088
-723,094	-200,000	0,012	-0,120
-722,079	-113,409	-0,097	0,014
-721,064	89,214	-0,055	-0,046
-720,050	-9,668	0,045	0,022
-719,035	-76,846	-0,017	0,004
-718,021	-53,448	0,041	0,014
-717,006	68,643	0,023	0,018
-715,991	124,337	-0,053	0,050
-714,977	-200,000	0,000	-0,014
-713,962	-143,104	-0,082	-0,006
-712,948	800,000	-0,014	0,029
-711,933	-200,000	-0,047	0,164
-710,918	-93,973	-0,063	-0,013
-709,904	-200,000	-0,005	-0,072
-708,889	-21,751	-0,137	-0,062
-707,875	-200,000	0,002	-0,073
-706,860	-200,000	0,016	-0,061
-705,845	-0,778	0,011	0,006
-704,831	179,185	0,044	-0,048
-703,816	-130,663	-0,130	0,013
-702,802	800,000	-0,003	-0,006
-701,787	69,600	-0,167	-0,128
-700,772	-13,578	0,030	0,014
-699,758	-77,737	-0,156	-0,040
-698,743	248,760	-0,044	-0,056
-697,729	-108,625	-0,114	-0,018
-696,714	-91,509	0,150	-0,032
-695,699	146,782	0,031	0,031
-694,685	-132,929	-0,142	-0,013
-693,670	-200,000	-0,012	-0,100
-692,656	-102,890	-0,122	-0,021
-691,641	800,000	0,020	-0,044
-690,627	248,777	0,045	0,057
-689,612	319,980	-0,070	0,100
-688,597	129,217	0,095	-0,090
-687,583	-13,590	-0,121	-0,058
-686,568	168,470	-0,039	-0,042
-685,554	-64,697	-0,099	0,030
-684,539	-106,597	-0,054	0,009
-683,524	-200,000	0,021	-0,109
-682,510	9,766	0,162	0,091
-681,495	-70,705	0,004	0,001
-680,481	500,332	0,018	-0,030
-679,466	58,329	-0,035	-0,025
-678,451	-200,000	0,013	0,073
-677,437	121,842	-0,025	-0,023
-676,422	-158,862	0,022	-0,001
-675,408	-200,000	-0,007	0,036
-674,393	800,000	-0,019	-0,050
-673,378	-144,056	-0,162	0,011
-672,364	-156,962	-0,103	0,005
-671,349	170,924	-0,041	-0,044
-670,335	-50,571	0,090	-0,031
-669,320	-200,000	-0,018	0,076
-668,305	545,778	0,066	0,117
-667,291	-200,000	0,005	0,028
-666,276	-127,803	-0,100	-0,011
-665,262	-200,000	0,011	-0,098
-664,247	-200,000	0,010	0,084
-663,232	-200,000	0,004	-0,221
-662,218	97,142	0,027	-0,023
-661,203	-142,905	0,050	-0,004
-660,189	-200,000	-0,003	0,143
-659,174	86,100	-0,150	0,123
-658,159	154,897	-0,050	0,051
-657,145	-43,759	-0,115	-0,043
-656,130	32,411	0,092	0,059
-655,116	28,705	-0,086	-0,054
-654,101	-97,811	0,091	0,017
-653,086	-166,307	0,124	0,004
-652,072	-200,000	0,021	0,080
-651,057	69,495	0,082	-0,062
-650,043	-85,832	-0,081	0,018
-649,028	-200,000	0,072	0,000
-648,014	-171,890	-0,180	-0,004
-646,999	191,017	0,067	0,075
-645,984	-200,000	0,039	0,172
-644,970	-10,209	-0,068	0,034
-643,955	-200,000	0,012	0,062
-642,941	47,239	0,059	-0,041
-641,926	-200,000	-0,005	-0,160
-640,911	39,514	-0,007	0,005
-639,897	-200,000	0,018	0,117
-638,882	-200,000	0,039	0,234
-637,868	800,000	-0,020	-0,061
-636,853	-200,000	-0,013	-0,086
-635,838	653,654	0,074	-0,141
-634,824	-200,000	-0,015	0,075
-633,809	66,189	0,061	0,046
-632,795	27,630	-0,055	-0,034
-631,780	114,836	0,035	-0,031
-630,765	503,297	0,037	0,064
-629,751	-200,000	0,000	0,093
-628,736	800,000	0,047	-0,139
-627,722	751,224	-0,077	-0,154
-626,707	800,000	-0,025	0,051
-625,692	-50,052	0,100	0,035
-624,678	-35,277	-0,029	-0,012
-623,663	500,078	-0,039	-0,067
-622,649	-27,031	0,046	0,020
-621,634	169,131	-0,099	-0,104
-620,619	-200,000	-0,023	-0,088
-619,605	12,626	0,100	0,057
-618,590	-166,713	0,111	-0,003
-617,576	-47,248	-0,024	-0,009
-616,561	380,601	0,043	0,066
-615,546	88,293	-0,063	0,052
-614,532	-200,000	-0,021	-0,082
-613,517	-94,663	0,022	0,004
-612,503	-200,000	0,010	0,041
-611,488	694,139	0,011	0,021
-610,474	-66,266	-0,148	-0,043
-609,459	-34,832	-0,095	0,038
-608,444	-200,000	-0,008	-0,110
-607,430	27,300	0,083	-0,051
-606,415	299,481	-0,058	-0,080
-605,401	-3,236	0,058	-0,030
-604,386	-141,660	0,022	0,002
-603,371	-200,000	-0,002	0,081
-602,357	-2,377	-0,154	-0,080
-601,342	174,584	-0,058	-0,062
-600,328	800,000	-0,044	-0,100
-599,313	-200,000	0,017	-0,058
-598,298	800,000	0,063	-0,155
-597,284	539,789	0,046	0,081
-596,269	-102,742	0,066	0,011
-595,255	12,020	0,085	-0,048
-594,240	-69,298	-0,083	0,023
-593,225	800,000	0,041	-0,093
-592,211	-200,000	0,018	-0,126
-591,196	71,822	-0,009	0,007
-590,182	132,485	-0,151	-0,144
-589,167	35,202	-0,076	-0,049
-588,152	-60,481	-0,045	-0,014
-587,138	-200,000	-0,008	-0,041
-586,123	264,600	0,012	-0,015
-585,109	392,313	0,084	0,129
-584,094	-67,674	-0,133	0,038
-583,079	54,935	0,165	-0,118
-582,065	-200,000	-0,023	0,135
-581,050	45,867	0,033	0,023
-580,036	401,265	-0,049	0,077
-579,021	800,000	0,033	-0,074
-578,006	800,000	0,078	-0,193
-576,992	6,991	-0,079	-0,043
-575,977	-43,615	0,021	0,008
-574,963	-115,856	0,129	0,018
-573,948	-200,000	0,004	0,020
-572,934	-200,000	-0,004	0,115
-571,919	-44,986	-0,144	0,053
-570,904	400,155	0,010	0,016
-569,890	159,868	0,024	-0,024
-568,875	-200,000	-0,011	-0,064
-567,861	510,866	-0,063	0,109
-566,846	150,406	-0,057	-0,057
-565,831	-40,404	0,166	-0,064
-564,817	401,593	-0,027	-0,042
-563,802	-116,818	-0,097	-0,013
-562,788	800,000	-0,035	-0,077
-561,773	800,000	-0,024	0,054
-560,758	-132,275	0,208	0,020
-559,744	47,048	-0,045	0,031
-558,729	-200,000	0,002	0,093
-557,715	-45,880	-0,149	-0,054
-556,700	154,769	-0,063	0,064
-555,685	275,076	0,056	0,074
-554,671	474,200	0,008	-0,013
-553,656	-127,213	0,078	0,008
-552,642	800,000	0,011	0,030
-551,627	-98,933	0,053	-0,010
-550,612	-102,620	0,067	0,012
-549,598	315,680	-0,040	-0,056
-548,583	-44,966	-0,062	-0,023
-547,569	-200,000	0,016	-0,055
-546,554	-135,428	0,114	-0,010
-545,539	374,942	0,081	0,122
-544,525	-200,000	-0,004	0,028
-543,510	-42,916	-0,108	-0,040
-542,496	144,569	-0,064	-0,064
-541,481	0,373	-0,137	-0,072
-540,466	5,590	0,097	-0,053
-539,452	6,348	0,119	0,065
-538,437	800,000	0,029	-0,063
-537,423	462,877	-0,028	-0,047
-536,408	-200,000	-0,006	0,065
-535,393	-122,269	-0,117	-0,014
-534,379	-64,641	-0,143	-0,042
-533,364	239,550	0,025	-0,031
-532,350	-124,639	-0,024	0,003
-531,335	-20,519	0,025	-0,011
-530,321	-8,912	0,047	0,023
-529,306	-112,410	-0,084	0,012
-528,291	15,220	-0,073	-0,042
-527,277	-92,255	0,087	0,018
-526,262	231,169	0,042	-0,051
-525,248	64,249	0,088	0,065
-524,233	-200,000	-0,021	0,108
-523,218	19,811	-0,097	0,058
-522,204	-200,000	-0,013	0,104
-521,189	412,774	-0,038	-0,059
-520,175	-150,291	0,105	0,006
-519,160	22,670	0,036	0,021
-518,145	-26,958	0,241	-0,103
-517,131	-200,000	0,028	-0,094
-516,116	369,735	0,056	-0,083
-515,102	800,000	0,029	-0,064
-514,087	-200,000	0,013	-0,047
-513,072	-200,000	0,025	-0,089
-512,058	161,875	0,045	-0,046
-511,043	319,075	0,109	-0,152
-510,029	-167,791	-0,044	0,001
-509,014	118,303	0,050	-0,045
-507,999	402,254	-0,057	0,089
-506,985	198,306	-0,030	-0,034
-505,970	-102,775	-0,135	-0,023
-504,956	-200,000	-0,014	-0,087
-503,941	-200,000	-0,086	0,000
-502,926	-69,392	-0,065	-0,018
-501,912	-200,000	-0,005	-0,062
-500,897	-193,382	0,051	-0,000
-499,883	-200,000	0,010	0,039
-498,868	-200,000	0,007	-0,150
-497,853	272,699	0,118	-0,154
-496,839	-200,000	0,000	-0,033
-495,824	800,000	0,057	0,129
-494,810	800,000	0,060	0,126
-493,795	272,866	-0,115	0,150
-492,781	196,266	0,115	0,130
-491,766	432,569	-0,040	-0,064
-490,751	-140,402	-0,161	0,012
-489,737	67,451	-0,038	0,028
-488,722	439,418	-0,006	-0,010
-487,708	-24,847	-0,088	-0,038
-486,693	45,108	0,089	0,061
-485,678	86,978	-0,095	-0,078
-484,664	257,077	0,117	0,148
-483,649	800,000	-0,010	0,023
-482,635	-14,507	-0,057	-0,027
-481,620	235,317	0,083	-0,102
-480,605	-200,000	-0,013	0,059
-479,591	551,964	0,050	0,089
-478,576	203,310	0,050	-0,057
-477,562	96,222	-0,141	-0,119
-476,547	210,522	-0,071	-0,082
-475,532	800,000	0,060	-0,154
-474,518	246,434	-0,007	0,008
-473,503	45,752	0,177	0,120
-472,489	-13,528	0,131	0,062
-471,474	-200,000	0,020	0,104
-470,459	-131,249	-0,063	0,006
-469,445	-200,000	-0,004	-0,040
-468,430	738,620	-0,062	-0,124
-467,416	-91,761	0,098	-0,020
-466,401	-200,000	-0,009	-0,059
-465,386	504,065	-0,054	0,092
-464,372	-200,000	-0,009	0,133
-463,357	-54,060	-0,142	-0,047
-462,343	26,915	0,069	0,043
-461,328	-128,394	0,042	-0,004
-460,313	8,821	0,068	-0,038
-459,299	-200,000	-0,013	0,066
-458,284	79,458	0,123	0,097
-457,270	285,471	-0,062	0,082
-456,255	3,442	-0,066	-0,036
-455,241	-200,000	-0,020	-0,156
-454,226	-200,000	-0,013	0,068
-453,211	800,000	0,012	-0,031
-452,197	-200,000	-0,007	0,087
-451,182	-200,000	-0,013	0,084
-450,168	-141,199	0,130	0,010
-449,153	38,094	0,031	-0,020
-448,138	-200,000	0,026	-0,112
-447,124	-15,273	-0,129	-0,061
-446,109	-200,000	0,005	-0,088
-445,095	-200,000	0,000	-0,002
-444,080	-200,000	-0,016	0,113
-443,065	156,272	0,055	-0,056
-442,051	800,000	0,018	-0,038
-441,036	-53,911	-0,181	-0,060
-440,022	642,559	-0,042	-0,079
-439,007	-200,000	-0,016	0,071
-437,992	-200,000	0,001	-0,114
-436,978	800,000	-0,025	0,061
-435,963	520,877	-0,031	0,054
-434,949	216,138	0,051	0,059
-433,934	-200,000	-0,020	-0,077
-432,919	159,254	0,037	-0,038
-431,905	-200,000	0,015	0,213
-430,890	72,762	-0,019	-0,015
-429,876	-200,000	0,021	-0,102
-428,861	-200,000	0,014	-0,056
-427,846	-133,982	-0,144	-0,013
-426,832	32,125	0,009	0,006
-425,817	-200,000	-0,004	0,027
-424,803	-8,531	-0,076	0,038
-423,788	111,121	0,050	-0,045
-422,773	-126,670	0,141	-0,015
-421,759	-47,611	-0,032	0,011
-420,744	-200,000	-0,025	0,192
-419,730	-37,270	0,018	-0,007
-418,715	54,344	-0,052	0,037
-417,701	373,352	-0,070	-0,105
-416,686	183,978	0,040	-0,044
-415,671	800,000	0,020	0,042
-414,657	-138,041	0,165	0,013
-413,642	800,000	0,038	-0,079
-412,628	326,731	-0,075	-0,106
-411,613	47,771	0,027	0,019
-410,598	251,018	0,078	-0,097
-409,584	-69,405	-0,066	-0,019
-408,569	-106,852	0,047	0,008
-407,555	-119,670	-0,065	0,008
-406,540	141,766	-0,018	0,018
-405,525	-200,000	-0,097	0,000
-404,511	-121,828	0,070	0,008
-403,496	101,875	-0,017	-0,015
-402,482	-10,176	0,114	-0,056
-401,467	196,953	-0,044	-0,050
-400,452	800,000	0,028	0,086
-399,438	-35,204	-0,146	0,058
-398,423	-48,786	0,056	-0,020
-397,409	507,526	-0,060	-0,103
-396,394	301,101	-0,015	0,021
-395,379	-102,898	0,126	0,022
-394,365	645,596	0,040	0,075
-393,350	28,534	-0,044	0,027
-392,336	-66,103	0,114	0,033
-391,321	123,307	-0,056	0,051
-390,306	800,000	0,014	-0,028
-389,292	-111,839	-0,048	0,007
-388,277	128,078	-0,189	-0,177
-387,263	-130,677	0,095	0,009
-386,248	-14,419	0,032	0,015
-385,233	-200,000	-0,038	-0,126
-384,219	-8,204	0,060	0,030
-383,204	-105,267	0,015	0,002
-382,190	-170,959	0,117	0,003
-381,175	701,115	-0,041	0,079
-380,160	-200,000	-0,017	0,055
-379,146	-200,000	0,001	0,112
-378,131	142,733	0,044	-0,043
-377,117	800,000	-0,004	-0,011
-376,102	-84,503	-0,147	0,034
-375,088	144,717	-0,017	0,016
-374,073	-200,000	-0,002	0,006
-373,058	48,349	0,078	0,053
-372,044	-69,294	-0,045	-0,013
-371,029	263,363	0,021	-0,027
-370,015	-128,414	-0,125	-0,013
-369,000	42,321	0,019	-0,013
-367,985	-200,000	-0,056	0,196
-366,971	109,910	0,052	-0,046
-365,956	427,908	0,035	0,056
-364,942	63,942	0,035	0,026
-363,927	-15,374	0,115	0,054
-362,912	229,976	-0,023	-0,027
-361,898	-43,206	-0,107	-0,039
-360,883	-59,941	-0,108	-0,034
-359,869	-68,982	-0,174	-0,049
-358,854	-61,975	-0,016	0,005
-357,839	-200,000	0,010	0,113
-356,825	-200,000	-0,005	-0,064
-355,810	72,059	0,091	-0,070
-354,796	800,000	0,016	-0,038
-353,781	18,165	-0,094	0,055
-352,766	174,769	-0,068	0,072
-351,752	384,542	0,055	-0,084
-350,737	800,000	-0,006	-0,017
-349,723	563,161	0,030	0,053
-348,708	5,719	0,124	0,067
-347,693	-194,104	0,045	-0,000
-346,679	76,684	0,048	0,038
-345,664	800,000	-0,013	-0,035
-344,650	60,984	0,063	0,046
-343,635	376,575	-0,056	0,084
-342,620	-89,202	0,088	0,019
-341,606	800,000	0,052	0,107
-340,591	630,922	-0,009	-0,017
-339,577	-200,000	-0,025	-0,194
-338,562	-97,900	-0,082	0,015
-337,548	-200,000	0,036	0,179
-336,533	28,562	0,072	-0,044
-335,518	-86,250	0,110	-0,025
-334,504	-200,000	-0,011	0,047
-333,489	-162,875	0,042	0,001
-332,475	-200,000	-0,001	-0,045
-331,460	-1,168	-0,054	0,028
-330,445	-49,246	0,025	0,009
-329,431	-200,000	-0,007	0,148
-328,416	-194,676	-0,021	0,000
-327,402	389,590	-0,052	0,079
-326,387	-147,884	0,023	-0,001
-325,372	-44,413	-0,078	-0,029
-324,358	111,914	-0,052	0,046
-323,343	-200,000	0,027	0,094
-322,329	-200,000	0,029	-0,094
-321,314	-200,000	0,000	0,043
-320,299	-200,000	0,001	0,094
-319,285	99,515	0,042	-0,036
-318,270	-200,000	0,008	0,049
-317,256	10,289	-0,047	0,026
-316,241	-200,000	-0,002	-0,063
-315,226	-200,000	-0,013	-0,061
-314,212	-58,095	0,096	-0,030
-313,197	364,492	0,080	0,118
-312,183	-181,043	-0,037	-0,001
-311,168	-102,708	0,085	0,015
-310,153	60,359	-0,106	-0,077
-309,139	-200,000	0,018	-0,100
-308,124	117,345	-0,044	0,040
-307,110	790,153	-0,024	0,049
-306,095	26,362	-0,122	0,074
-305,080	72,985	0,024	0,018
-304,066	800,000	0,040	-0,122
-303,051	401,777	-0,064	-0,098
-302,037	519,061	0,014	0,023
-301,022	-127,221	-0,072	-0,008
-300,008	225,324	0,031	0,037
-298,993	-5,949	0,057	0,028
-297,978	-200,000	-0,026	0,097
-296,964	91,565	0,003	-0,003
-295,949	27,048	-0,090	0,055
-294,935	316,346	-0,091	0,126
-293,920	800,000	-0,049	0,107
-292,905	-10,983	0,044	-0,021
-291,891	142,203	0,060	0,059
-290,876	2,990	-0,096	0,051
-289,862	-200,000	-0,008	-0,075
-288,847	208,280	-0,099	-0,114
-287,832	241,105	0,081	-0,099
-286,818	286,843	-0,058	-0,077
-285,803	-200,000	0,032	-0,184
-284,789	-200,000	0,018	0,109
-283,774	-141,402	0,019	-0,001
-282,759	-175,750	0,037	0,001
-281,745	75,535	-0,074	-0,057
-280,730	-74,838	-0,156	-0,041
-279,716	-200,000	-0,021	0,108
-278,701	-2,074	-0,073	0,037
-277,686	-133,404	0,095	-0,009
-276,672	43,253	-0,012	0,008
-275,657	-69,023	-0,149	0,042
-274,643	-27,641	-0,095	-0,040
-273,628	-200,000	0,012	-0,059
-272,613	800,000	-0,021	0,050
-271,599	326,842	0,064	0,090
-270,584	-60,853	0,087	0,027
-269,570	-87,538	0,015	0,003
-268,555	77,797	0,057	-0,045
-267,540	800,000	-0,016	-0,041
-266,526	-200,000	-0,001	0,110
-265,511	-59,245	0,027	-0,008
-264,497	-200,000	-0,010	-0,097
-263,482	-154,879	0,043	0,002
-262,467	797,225	0,050	0,101
-261,453	214,106	-0,035	0,040
-260,438	-128,215	-0,095	0,010
-259,424	-114,231	0,081	0,011
-258,409	134,535	-0,063	0,060
-257,395	-156,666	-0,053	-0,002
-256,380	5,040	0,089	0,048
-255,365	225,298	0,069	0,082
-254,351	800,000	-0,036	-0,105
-253,336	-131,703	-0,141	-0,013
-252,322	85,451	-0,092	-0,074
-251,307	800,000	0,070	-0,167
-250,292	800,000	0,034	-0,105
-249,278	800,000	0,091	0,195
-248,263	-200,000	0,004	-0,038
-247,249	54,443	0,051	0,036
-246,234	-99,491	-0,057	-0,010
-245,219	-3,100	0,005	-0,003
-244,205	-14,972	-0,086	0,040
-243,190	800,000	0,020	0,059
-242,176	-200,000	-0,010	-0,061
-241,161	-84,270	0,032	-0,007
-240,146	-93,882	0,096	-0,019
-239,132	-200,000	-0,013	-0,040
-238,117	-200,000	0,014	-0,056
-237,103	-32,215	-0,046	-0,019
-236,088	-158,120	0,060	0,003
-235,073	212,537	0,037	0,043
-234,059	244,876	-0,170	0,209
-233,044	-200,000	0,002	0,050
-232,030	-39,602	-0,044	-0,017
-231,015	77,093	0,045	-0,035
-230,000	41,815	-0,139	-0,092
-228,986	-200,000	-0,001	0,059
-227,971	263,193	0,011	0,014
-226,957	138,095	0,111	0,107
-225,942	-184,790	0,091	0,001
-224,927	330,382	0,071	0,101
-223,913	-200,000	-0,010	0,069
-222,898	-200,000	-0,018	-0,090
-221,884	75,872	-0,073	-0,056
-220,869	62,149	-0,099	0,072
-219,855	-89,612	-0,049	0,010
-218,840	-90,607	0,005	0,001
-217,825	800,000	-0,072	0,211
-216,811	73,180	-0,091	-0,069
-215,796	660,302	0,045	-0,085
-214,782	-200,000	0,009	0,048
-213,767	-200,000	0,012	-0,049
-212,752	-72,093	0,179	0,048
-211,738	45,590	-0,054	0,036
-210,723	154,848	0,032	0,032
-209,709	-85,924	0,078	-0,017
-208,694	-96,237	-0,136	0,026
-207,679	-130,328	0,050	0,005
-206,665	386,265	0,066	0,100
-205,650	800,000	0,018	0,047
-204,636	800,000	0,029	0,072
-203,621	-200,000	-0,008	-0,049
-202,606	343,712	-0,044	-0,063
-201,592	101,320	0,083	0,070
-200,577	-200,000	-0,001	0,036
-199,563	800,000	0,039	0,102
-198,548	12,521	0,102	0,057
-197,533	2,944	-0,049	0,026
-196,519	97,188	0,101	-0,084
-195,504	48,617	-0,044	0,030
-194,490	800,000	0,013	0,028
-193,475	-200,000	-0,010	-0,061
-192,460	31,586	-0,084	-0,052
-191,446	-200,000	0,006	0,027
-190,431	171,624	0,091	0,095
-189,417	742,126	0,016	0,032
-188,402	-58,858	-0,095	-0,030
-187,387	364,045	-0,035	-0,052
-186,373	-74,492	-0,032	-0,008
-185,358	-200,000	-0,028	-0,137
-184,344	-124,266	0,095	0,011
-183,329	90,573	0,091	0,074
-182,315	172,992	0,036	-0,038
-181,300	-50,855	-0,172	-0,059
-180,285	388,020	-0,043	0,064
-179,271	199,255	0,120	-0,134
-178,256	-32,814	-0,089	0,036
-177,242	-200,000	-0,009	0,064
-176,227	43,173	0,087	0,058
-175,212	-183,971	-0,067	-0,001
-174,198	10,151	0,029	-0,016
-173,183	-200,000	-0,024	-0,175
-172,169	-30,310	-0,083	-0,034
-171,154	-200,000	-0,005	0,065
-170,139	-35,957	0,061	-0,024
-169,125	-200,000	0,032	-0,142
-168,110	37,292	-0,014	-0,009
-167,096	-55,834	0,050	-0,016
-166,081	0,537	0,114	0,059
-165,066	-124,401	-0,049	0,005
-164,052	35,408	-0,088	-0,056
-163,037	-41,481	0,030	0,011
-162,023	191,525	0,086	0,094
-161,008	799,499	-0,035	0,070
-159,993	-129,699	-0,048	0,005
-158,979	-58,835	0,077	-0,024
-157,964	529,616	-0,022	0,039
-156,950	-161,203	0,077	-0,003
-155,935	-73,054	0,046	-0,012
-154,920	-67,753	0,104	0,029
-153,906	-49,594	-0,096	-0,033
-152,891	-200,000	-0,009	-0,030
-151,877	-86,250	0,027	-0,006
-150,862	-179,094	-0,173	0,003
-149,847	-200,000	-0,027	-0,117
-148,833	800,000	-0,007	0,016
-147,818	378,411	-0,037	0,055
-146,804	-200,000	0,031	0,215
-145,789	49,798	0,109	0,075
-144,775	-66,176	0,067	-0,019
-143,760	284,636	0,093	-0,122
-142,745	800,000	-0,042	-0,094
-141,731	204,940	0,066	0,075
-140,716	261,063	-0,013	-0,016
-139,702	12,964	0,028	-0,016
-138,687	-72,884	-0,083	-0,022
-137,672	-160,578	-0,074	-0,003
-136,658	800,000	-0,035	-0,077
-135,643	-48,069	0,098	0,034
-134,629	316,732	-0,059	-0,081
-133,614	-200,000	0,007	-0,025
-132,599	7,095	0,131	-0,071
-131,585	-200,000	-0,013	-0,064
-130,570	103,172	-0,086	0,074
-129,556	-68,782	-0,133	-0,037
-128,541	-39,855	-0,043	0,016
-127,526	800,000	-0,028	-0,060
-126,512	205,203	0,096	0,109
-125,497	-106,590	0,092	0,015
-124,483	289,730	-0,064	0,085
-123,468	-200,000	-0,009	0,114
-122,453	-100,477	-0,029	0,005
-121,439	-140,469	-0,080	-0,006
-120,424	25,075	0,068	-0,041
-119,410	-200,000	-0,003	-0,181
-118,395	800,000	-0,035	0,108
-117,380	788,272	0,016	-0,031
-116,366	122,622	0,091	-0,083
-115,351	-11,488	-0,106	0,051
-114,337	43,574	0,034	-0,022
-113,322	-200,000	0,011	-0,060
-112,307	-60,196	0,114	-0,035
-111,293	34,337	0,105	0,066
-110,278	-21,249	0,147	-0,065
-109,264	9,443	0,077	-0,042
-108,249	-200,000	0,000	0,108
-107,234	800,000	0,007	-0,016
-106,220	43,757	-0,081	-0,054
-105,205	-31,139	0,020	0,008
-104,191	-200,000	-0,011	0,061
-103,176	-200,000	0,009	0,063
-102,162	712,896	0,003	-0,006
-101,147	61,566	0,016	0,012
-100,132	633,423	-0,058	-0,107
-99,118	-148,009	-0,024	-0,001
-98,103	-124,413	-0,055	-0,006
-97,089	-70,564	0,037	0,010
-96,074	-200,000	-0,008	-0,125
-95,059	120,233	-0,027	-0,025
-94,045	-180,253	-0,105	-0,002
-93,030	800,000	-0,031	-0,088
-92,016	-150,612	-0,070	0,004
-91,001	12,070	0,060	-0,033
-89,986	800,000	-0,032	0,101
-88,972	176,181	0,056	0,060
-87,957	-83,876	0,261	0,060
-86,943	1,694	-0,062	0,032
-85,928	89,082	-0,048	0,039
-84,913	800,000	0,036	-0,086
-83,899	-200,000	-0,004	-0,060
-82,884	-200,000	-0,009	-0,033
-81,870	800,000	0,029	0,069
-80,855	16,539	0,033	-0,019
-79,840	-0,793	-0,031	0,016
-78,826	-80,194	-0,149	-0,036
-77,811	-120,591	0,045	-0,005
-76,797	-200,000	0,002	-0,059
-75,782	-200,000	-0,008	0,058
-74,767	759,095	0,070	0,139
-73,753	-40,877	0,080	0,030
-72,738	50,243	-0,113	-0,077
-71,724	615,875	0,060	-0,109
-70,709	-65,662	-0,179	0,052
-69,694	27,657	-0,074	-0,045
-68,680	-44,982	-0,020	0,007
-67,665	-18,030	0,133	-0,060
-66,651	800,000	0,024	0,071
-65,636	-65,432	0,079	-0,023
-64,622	-12,431	-0,058	-0,027
-63,607	-200,000	0,021	-0,170
-62,592	-200,000	-0,042	0,000
-61,578	271,600	-0,063	0,081
-60,563	-170,786	0,067	0,002
-59,549	456,441	-0,036	-0,059
-58,534	-99,786	-1,438	-0,258
-57,519	800,000	-0,760	-1,555
-56,505	-200,000	-0,791	-4,444
-55,490	-37,507	0,626	-0,241
-54,476	800,000	4,934	11,792
-53,461	-200,000	14,626	263,853
-52,446	-200,000	697,128	2282,860
-51,432	603,785	1622,829	2939,666
-50,417	119,334	1630,134	1462,454
-49,403	77,376	1283,597	988,897
-48,388	37,556	1021,457	655,631
-47,373	23,243	980,908	582,581
-46,359	22,355	970,204	573,292
-45,344	21,162	965,821	566,785
-44,330	21,180	964,469	566,027
-43,315	21,047	963,022	564,723
-42,300	21,040	961,808	563,967
-41,286	21,008	960,962	563,345
-40,271	20,989	960,045	562,724
-39,257	20,988	959,058	562,118
-38,242	20,996	958,047	561,528
-37,227	20,966	957,466	561,071
-36,213	20,975	956,378	560,439
-35,198	20,925	955,431	559,700
-34,184	20,988	954,725	559,467
-33,169	20,988	953,697	558,844
-32,154	21,007	952,956	558,449
-31,140	20,942	952,177	557,759
-30,125	20,897	951,550	557,226
-29,111	21,026	950,356	556,918
-28,096	20,923	949,871	556,283
-27,082	20,988	949,032	555,975
-26,067	20,971	948,246	555,441
-25,052	20,967	947,605	555,029
-24,038	21,011	946,887	554,726
-23,023	20,997	946,275	554,301
-22,009	21,067	945,362	553,969
-20,994	21,014	945,206	553,687
-19,979	21,013	944,464	553,226
-18,965	21,005	943,886	552,842
-17,950	20,976	943,518	552,511
-16,936	20,977	942,418	551,848
-15,921	20,934	941,928	551,402
-14,906	20,851	941,146	550,659
-13,892	20,920	940,515	550,486
-12,877	20,872	939,895	549,950
-11,863	20,790	939,540	549,461
-10,848	20,878	938,623	549,180
-9,833	20,982	938,362	549,334
-8,819	20,922	937,618	548,688
-7,804	20,864	937,117	548,190
-6,790	20,809	936,492	547,627
-5,775	20,918	935,833	547,565
-4,760	20,899	935,254	547,144
-3,746	20,803	934,709	546,503
-2,731	20,729	933,972	545,815
-1,717	20,649	933,293	545,145
-0,702	20,711	932,574	544,900
0,313	20,508	931,954	544,720
1,327	22,855	929,678	550,716
2,342	30,066	806,315	497,138
3,356	24,528	507,261	303,294
4,371	0,461	373,518	192,683
5,386	-2,533	356,613	180,271
6,400	-3,732	350,530	175,731
7,415	-4,250	348,029	173,840
8,429	-3,993	346,598	173,417
9,444	-4,176	345,711	172,739
10,459	-4,068	345,040	172,517
11,473	-4,028	344,322	172,190
12,488	-4,168	343,921	171,808
13,502	-4,176	343,293	171,470
14,517	-4,259	342,765	171,093
15,531	-4,077	342,381	171,101
16,546	-4,110	341,955	170,834
17,561	-3,985	341,420	170,699
18,575	-3,887	341,109	170,644
19,590	-3,792	340,589	170,479
20,604	-3,923	340,377	170,204
21,619	-3,937	339,894	169,931
22,634	-3,973	339,647	169,750
23,648	-4,046	339,243	169,448
24,663	-3,965	338,828	169,320
25,677	-4,021	338,654	169,153
26,692	-3,909	338,310	169,096
27,707	-3,776	337,941	169,052
28,721	-4,108	337,617	168,489
29,736	-3,962	337,237	168,454
30,750	-4,025	337,141	168,318
31,765	-3,932	336,839	168,259
32,780	-3,827	336,445	168,169
33,794	-3,899	336,219	167,958
34,809	-3,942	336,035	167,801
35,823	-3,891	335,568	167,612
36,838	-4,059	335,440	167,339
37,853	-3,937	335,005	167,248
38,867	-4,119	334,929	166,985
39,882	-3,972	334,581	166,966
40,896	-3,846	334,313	166,962
41,911	-3,991	333,862	166,556
42,926	-3,900	333,733	166,581
43,940	-3,825	333,461	166,517
44,955	-3,963	333,250	166,238
45,969	-3,952	332,770	165,996
46,984	-4,014	332,793	165,923
47,999	-3,821	332,571	166,017
49,013	-3,852	332,345	165,854
50,028	-3,898	331,960	165,595
51,042	-3,775	331,673	165,577
52,057	-3,876	331,490	165,356
53,071	-3,845	331,131	165,198
54,086	-3,851	330,939	165,080
55,101	-3,883	330,715	164,918
56,115	-3,687	330,446	164,990
57,130	-3,821	330,061	164,632
58,144	-3,923	329,823	164,383
59,159	-4,058	329,577	164,093
60,174	-3,947	329,307	164,070
61,188	-3,872	328,928	163,951
62,203	-3,891	328,742	163,822
63,217	-3,907	328,510	163,673
64,232	-3,836	328,147	163,558
65,247	-3,874	327,783	163,320
66,261	-3,967	327,748	163,182
67,276	-3,913	327,529	163,120
68,290	-3,748	327,215	163,135
69,305	-3,902	326,865	162,773
70,320	-3,938	326,783	162,676
71,334	-3,911	326,392	162,498
72,349	-3,942	326,212	162,359
73,363	-4,042	325,959	162,107
74,378	-3,865	325,510	162,067
75,393	-3,969	325,362	161,863
76,407	-3,918	325,187	161,818
77,422	-3,859	324,924	161,739
78,436	-3,923	324,666	161,525
79,451	-3,963	324,424	161,346
80,466	-3,977	324,205	161,206
81,480	-3,628	323,827	161,391
82,495	-3,935	323,713	160,980
83,509	-3,734	323,363	161,013
84,524	-3,852	323,275	160,824
85,539	-3,829	323,075	160,737
86,553	-3,835	322,825	160,592
87,568	-3,839	322,459	160,390
88,582	-4,018	322,276	160,087
89,597	-3,975	321,995	159,981
90,611	-3,873	321,829	159,996
91,626	-3,972	321,541	159,730
92,641	-3,975	321,369	159,627
93,655	-3,885	321,067	159,562
94,670	-3,892	320,819	159,417
95,684	-3,937	320,504	159,197
96,699	-3,814	320,328	159,229
97,714	-3,960	320,212	158,998
98,728	-3,977	319,988	158,854
99,743	-3,818	319,480	158,762
100,757	-3,729	319,375	158,792
101,772	-3,899	319,116	158,464
102,787	-3,881	318,961	158,393
103,801	-3,932	318,727	158,206
104,816	-3,878	318,418	158,098
105,830	-3,935	318,169	157,898
106,845	-3,914	317,961	157,804
107,860	-3,807	317,756	157,804
108,874	-3,854	317,441	157,582
109,889	-3,895	317,164	157,387
110,903	-3,991	317,038	157,206
111,918	-3,927	316,811	157,148
112,933	-3,887	316,616	157,081
113,947	-3,959	316,425	156,895
114,962	-3,946	316,218	156,792
115,976	-3,886	315,855	156,662
116,991	-3,985	315,766	156,497
118,006	-3,979	315,425	156,322
119,020	-3,979	315,338	156,264
120,035	-3,837	315,057	156,264
121,049	-3,787	314,839	156,196
122,064	-3,834	314,712	156,067
123,079	-3,888	314,371	155,827
124,093	-3,841	314,204	155,781
125,108	-3,944	313,995	155,553
126,122	-3,756	313,697	155,593
127,137	-3,779	313,505	155,459
128,151	-3,729	313,238	155,366
129,166	-3,915	313,088	155,079
130,181	-3,869	312,891	155,017
131,195	-3,755	312,537	154,949
132,210	-3,907	312,329	154,671
133,224	-3,871	312,148	154,605
134,239	-3,970	311,889	154,358
135,254	-3,786	311,675	154,433
136,268	-3,970	311,452	154,114
137,283	-3,650	311,227	154,328
138,297	-3,858	310,935	153,949
139,312	-3,884	310,871	153,876
140,327	-3,900	310,387	153,607
141,341	-3,853	310,178	153,539
142,356	-3,933	310,195	153,449
143,370	-3,927	309,895	153,293
144,385	-3,860	309,733	153,270
145,400	-3,982	309,431	152,979
146,414	-3,857	309,198	152,981
147,429	-3,970	309,035	152,768
148,443	-3,993	308,742	152,585
149,458	-4,010	308,619	152,494
150,473	-3,936	308,389	152,444
151,487	-3,857	308,126	152,383
152,502	-3,941	307,964	152,201
153,516	-3,740	307,592	152,214
154,531	-3,961	307,419	151,883
155,546	-3,855	307,134	151,840
156,560	-3,880	307,202	151,835
157,575	-3,767	306,892	151,785
158,589	-3,891	306,527	151,462
159,604	-3,917	306,284	151,301
160,619	-3,775	306,040	151,315
161,633	-3,716	305,899	151,293
162,648	-3,746	305,838	151,218
163,662	-3,775	305,459	150,987
164,677	-3,841	305,288	150,821
165,692	-3,741	305,167	150,852
166,706	-3,819	304,974	150,662
167,721	-3,855	304,733	150,492
168,735	-3,854	304,590	150,409
169,750	-3,825	304,401	150,332
170,764	-3,925	304,148	150,090
171,779	-3,871	303,965	150,043
172,794	-3,796	303,747	149,999
173,808	-3,672	303,511	149,996
174,823	-3,745	303,286	149,797
175,837	-3,750	303,229	149,751
176,852	-3,747	302,843	149,549
177,867	-3,801	302,689	149,405
178,881	-3,821	302,441	149,249
179,896	-3,868	302,352	149,143
180,910	-3,792	302,065	149,065
181,925	-3,812	301,912	148,957
182,940	-3,894	301,778	148,793
183,954	-3,966	301,548	148,592
184,969	-3,746	301,236	148,651
185,983	-3,736	301,082	148,572
186,998	-3,733	300,809	148,427
188,013	-3,752	300,786	148,383
189,027	-3,722	300,402	148,210
190,042	-3,874	300,282	147,984
191,056	-3,916	300,117	147,846
192,071	-3,835	299,683	147,701
193,086	-3,912	299,655	147,597
194,100	-3,958	299,469	147,446
195,115	-3,926	299,218	147,341
196,129	-3,812	298,954	147,313
197,144	-3,748	298,689	147,234
198,159	-3,739	298,583	147,178
199,173	-3,701	298,256	147,042
200,188	-4,074	298,201	146,624
201,202	-3,828	298,014	146,768
202,217	-3,737	297,823	146,753
203,232	-3,793	297,469	146,509
204,246	-3,815	297,365	146,422
205,261	-3,766	297,114	146,335
206,275	-3,757	296,943	146,247
207,290	-3,913	296,859	146,036
208,304	-3,776	296,550	146,008
209,319	-3,807	296,272	145,828
210,334	-3,743	296,074	145,781
211,348	-3,846	295,946	145,601
212,363	-3,622	295,600	145,643
213,377	-3,718	295,487	145,478
214,392	-3,777	295,260	145,294
215,407	-3,701	295,049	145,254
216,421	-3,714	294,938	145,173
217,436	-3,640	294,742	145,137
218,450	-3,728	294,528	144,931
219,465	-3,815	294,376	144,757
220,480	-3,838	294,235	144,651
221,494	-3,783	293,892	144,525
222,509	-3,853	293,756	144,375
223,523	-3,816	293,656	144,350
224,538	-3,777	293,335	144,218
225,553	-3,900	293,263	144,048
226,567	-3,734	292,969	144,055
227,582	-3,913	292,892	143,828
228,596	-3,891	292,719	143,752
229,611	-3,807	292,489	143,708
230,626	-3,689	292,203	143,672
231,640	-3,731	292,119	143,576
232,655	-3,778	291,872	143,395
233,669	-3,777	291,706	143,302
234,684	-3,736	291,468	143,213
235,699	-3,542	291,312	143,315
236,713	-3,751	291,029	142,957
237,728	-3,721	290,800	142,862
238,742	-3,729	290,646	142,765
239,757	-3,876	290,434	142,504
240,772	-3,829	290,249	142,446
241,786	-3,652	289,979	142,475
242,801	-3,789	289,827	142,254
243,815	-3,619	289,750	142,369
244,830	-3,825	289,643	142,102
245,844	-3,648	289,422	142,154
246,859	-3,643	289,070	141,973
247,874	-3,680	288,967	141,874
248,888	-3,804	288,719	141,619
249,903	-3,742	288,528	141,572
250,917	-3,825	288,411	141,422
251,932	-3,727	288,058	141,332
252,947	-3,997	287,890	140,974
253,961	-4,232	287,687	140,634
254,976	-4,040	287,594	140,763
255,990	-3,928	287,422	140,774
257,005	-3,104	287,455	141,576
258,020	-1,139	288,228	143,852
259,034	0,130	288,560	145,238
260,049	0,497	288,562	145,583
261,063	0,897	288,521	145,936
262,078	1,160	288,646	146,243
263,093	1,629	288,374	146,546
264,107	1,803	288,287	146,657
265,122	2,034	288,245	146,846
266,136	2,101	288,058	146,803
267,151	2,179	287,926	146,797
268,166	2,295	287,741	146,803
269,180	2,478	287,464	146,825
270,195	2,082	287,467	146,431
271,209	2,316	287,100	146,457
272,224	2,185	286,879	146,204
273,239	2,153	286,697	146,068
274,253	2,049	286,549	145,879
275,268	2,121	286,472	145,896
276,282	2,034	286,193	145,658
277,297	2,037	285,930	145,514
278,312	2,021	285,776	145,407
279,326	2,098	285,539	145,348
280,341	2,136	285,543	145,373
281,355	1,976	285,223	145,044
282,370	2,004	284,899	144,893
283,384	1,967	284,933	144,862
284,399	1,879	284,726	144,659
285,414	2,060	284,485	144,697
286,428	1,971	284,486	144,600
287,443	1,942	284,042	144,333
288,457	1,956	284,038	144,332
289,472	1,982	283,731	144,188
290,487	1,914	283,455	143,970
291,501	1,935	283,397	143,948
292,516	1,905	283,103	143,757
293,530	1,882	282,996	143,668
294,545	1,745	282,845	143,449
295,560	1,776	282,603	143,343
296,574	1,803	282,381	143,243
297,589	1,944	282,127	143,234
298,603	1,878	281,924	143,056
299,618	1,974	281,957	143,152
300,633	1,987	281,646	142,992
301,647	1,845	281,495	142,769
302,662	1,920	281,355	142,756
303,676	2,090	281,250	142,850
304,691	2,192	280,915	142,763
305,706	2,167	280,767	142,652
306,720	2,057	280,701	142,502
307,735	2,046	280,421	142,337
308,749	1,958	280,271	142,165
309,764	2,029	280,003	142,084
310,779	2,032	279,981	142,063
311,793	1,971	279,709	141,855
312,808	2,216	279,372	141,900
313,822	2,112	279,513	141,862
314,837	2,026	279,233	141,627
315,852	1,947	279,031	141,438
316,866	1,954	278,726	141,278
317,881	1,981	278,500	141,176
318,895	2,113	278,387	141,229
319,910	1,946	278,247	140,989
320,925	2,201	278,017	141,097
321,939	2,025	277,957	140,891
322,954	2,104	277,804	140,874
323,968	1,978	277,659	140,670
324,983	2,180	277,409	140,719
325,997	2,129	277,176	140,541
327,012	2,276	276,957	140,554
328,027	2,153	276,956	140,427
329,041	2,113	276,730	140,263
330,056	2,092	276,471	140,099
331,070	2,190	276,412	140,148
332,085	2,330	276,015	140,063
333,100	2,005	276,052	139,769
334,114	2,365	275,763	139,942
335,129	2,103	275,566	139,589
336,143	2,258	275,419	139,644
337,158	2,170	275,176	139,428
338,173	2,239	275,093	139,437
339,187	2,335	274,894	139,411
340,202	2,285	274,787	139,298
341,216	2,192	274,532	139,072
342,231	2,266	274,322	139,021
343,246	2,336	274,119	138,970
344,260	2,198	273,937	138,739
345,275	2,099	273,873	138,603
346,289	2,257	273,795	138,696
347,304	2,240	273,458	138,497
348,319	2,173	273,358	138,373
349,333	2,470	272,976	138,438
350,348	2,308	272,964	138,273
351,362	2,305	272,701	138,123
352,377	2,386	272,585	138,127
353,392	2,249	272,386	137,889
354,406	2,250	272,264	137,815
355,421	191,800	1348,714	1429,273
356,435	154,851	1479,956	1429,397
