DTS Sentinel unit serial number:	SN410029Multiplexer serial number:	ORYXHardware model number:	OX2-SRSoftware version number:	ORYX F/W v4,00 Oryx Data Collector v3.7.2.0data status	okinstallation	B3 Nyhavnadifferential loss correction	single-endedforward channel	channel 1reverse channel	N/Adate	2023/11/28time	15:17:30forward acquisition time	300,00reverse acquisition time	0,00gamma	499,1914k internal	0,3173k external	0,3173temperature offset calibration	1,0000default loss term (dB/km)	0,3820temperature slope calibration	1,0000multiplexer offset coefficient	1,0000multiplexer slope coefficient	1,0000fibre end	0,00T internal ref (°C)	7,31T ext. ref 1 (°C)	-7,64T ext. ref 2 (°C)	-7,80length (m)	temperature (°C)	Stokes	anti-Stokes-744,400	297,007	-0,235	-0,318
-743,385	800,000	0,089	0,267
-742,371	-200,000	-0,049	-0,190
-741,356	-200,000	-0,056	0,271
-740,342	177,907	-0,167	-0,179
-739,327	-200,000	0,019	0,267
-738,312	92,310	-0,227	-0,188
-737,298	-200,000	0,013	0,267
-736,283	-200,000	-0,076	-0,309
-735,269	-200,000	0,007	0,064
-734,254	156,242	-0,248	-0,252
-733,239	190,232	-0,149	0,165
-732,225	269,028	-0,176	-0,227
-731,210	612,112	0,081	0,150
-730,196	198,853	-0,070	0,079
-729,181	14,891	0,141	0,081
-728,167	94,943	-0,163	0,136
-727,152	54,374	0,081	-0,057
-726,137	800,000	0,030	-0,088
-725,123	-200,000	0,005	0,037
-724,108	-98,310	0,037	0,007
-723,094	291,053	-0,148	-0,198
-722,079	-20,593	-0,096	-0,043
-721,064	-200,000	0,021	0,098
-720,050	-45,348	0,085	-0,031
-719,035	-40,100	0,117	0,044
-718,021	-121,197	0,008	0,001
-717,006	-77,598	-0,135	-0,034
-715,991	800,000	-0,045	-0,111
-714,977	-100,095	-0,078	0,014
-713,962	-133,792	0,039	0,004
-712,948	287,570	-0,044	0,059
-711,933	-60,220	0,097	0,030
-710,918	-25,184	-0,012	-0,005
-709,904	233,087	0,064	0,077
-708,889	128,530	-0,042	0,040
-707,875	140,868	0,017	-0,017
-706,860	-140,154	-0,114	-0,009
-705,845	356,709	0,031	-0,045
-704,831	-200,000	0,019	0,131
-703,816	212,367	-0,067	0,078
-702,802	43,443	-0,020	0,013
-701,787	575,576	-0,136	-0,245
-700,772	-17,370	-0,124	-0,057
-699,758	43,480	0,096	-0,064
-698,743	800,000	-0,031	0,093
-697,729	223,018	0,032	-0,038
-696,714	477,439	-0,021	-0,035
-695,699	479,774	-0,036	-0,060
-694,685	-68,631	-0,030	0,008
-693,670	381,079	-0,053	0,080
-692,656	-200,000	0,003	0,032
-691,641	-200,000	-0,018	-0,109
-690,627	34,122	0,118	0,075
-689,612	-121,367	0,122	0,015
-688,597	-126,899	-0,037	-0,004
-687,583	16,143	-0,112	0,065
-686,568	67,915	-0,053	0,040
-685,554	-200,000	0,021	0,173
-684,539	800,000	-0,016	0,045
-683,524	800,000	0,063	0,147
-682,510	449,087	0,039	0,063
-681,495	-200,000	0,008	-0,027
-680,481	26,834	-0,034	0,021
-679,466	-18,411	-0,116	-0,053
-678,451	-200,000	0,019	-0,186
-677,437	202,032	-0,121	-0,137
-676,422	83,408	0,163	0,129
-675,408	800,000	0,036	0,102
-674,393	800,000	0,017	0,047
-673,378	273,874	0,054	-0,070
-672,364	-140,591	-0,020	-0,002
-671,349	-200,000	0,007	0,035
-670,335	370,503	-0,056	0,083
-669,320	-141,878	0,037	0,003
-668,305	445,032	0,014	0,022
-667,291	-200,000	0,007	0,034
-666,276	165,715	-0,036	-0,038
-665,262	-200,000	-0,003	-0,184
-664,247	228,345	-0,074	-0,089
-663,232	402,247	-0,049	-0,076
-662,218	-200,000	0,007	0,145
-661,203	800,000	0,036	0,085
-660,189	173,659	0,042	0,045
-659,174	1,454	-0,016	-0,009
-658,159	800,000	0,058	-0,163
-657,145	-200,000	0,006	-0,113
-656,130	800,000	-0,025	0,070
-655,116	27,172	0,092	0,057
-654,101	-2,716	0,079	0,040
-653,086	-109,080	0,062	-0,010
-652,072	415,133	-0,077	-0,121
-651,057	-54,482	-0,061	0,020
-650,043	-190,633	-0,099	0,001
-649,028	22,464	-0,030	0,018
-648,014	270,097	-0,021	-0,027
-646,999	800,000	-0,036	-0,086
-645,984	800,000	-0,061	0,124
-644,970	205,265	0,030	-0,034
-643,955	-75,609	-0,093	-0,024
-642,941	-200,000	0,011	-0,176
-641,926	-200,000	-0,005	0,031
-640,911	11,435	0,063	0,035
-639,897	2,442	0,089	-0,047
-638,882	393,903	0,036	-0,055
-637,868	69,712	0,025	-0,019
-636,853	663,259	0,041	0,077
-635,838	-200,000	-0,019	-0,098
-634,824	-157,150	0,026	0,001
-633,809	-72,600	0,118	0,032
-632,795	83,938	0,022	0,017
-631,780	-45,986	0,133	0,048
-630,765	-109,513	0,062	0,009
-629,751	-113,303	-0,038	-0,005
-628,736	-148,435	-0,104	-0,006
-627,722	612,491	0,068	-0,125
-626,707	123,375	-0,071	-0,065
-625,692	348,277	0,016	-0,024
-624,678	112,460	0,068	-0,060
-623,663	-129,235	-0,095	0,010
-622,649	12,900	-0,056	0,032
-621,634	329,693	-0,143	-0,201
-620,619	-123,908	-0,150	0,017
-619,605	111,700	0,083	0,073
-618,590	43,858	-0,060	0,040
-617,576	183,500	0,159	0,171
-616,561	82,565	-0,063	0,050
-615,546	-107,874	-0,178	-0,028
-614,532	-200,000	0,024	-0,082
-613,517	193,192	-0,100	-0,110
-612,503	-119,141	-0,028	-0,004
-611,488	800,000	0,026	0,069
-610,474	569,227	0,023	-0,041
-609,459	577,707	-0,026	0,047
-608,444	91,853	-0,042	-0,034
-607,430	134,059	-0,151	-0,143
-606,415	88,070	0,073	-0,059
-605,401	67,045	0,074	0,055
-604,386	-44,611	0,104	-0,038
-603,371	-51,321	-0,123	-0,042
-602,357	176,603	0,061	-0,065
-601,342	800,000	-0,052	-0,146
-600,328	149,501	-0,078	-0,077
-599,313	-149,621	-0,128	-0,007
-598,298	301,506	-0,111	-0,150
-597,284	-34,546	0,034	0,013
-596,269	408,453	-0,026	0,040
-595,255	-44,145	0,041	-0,015
-594,240	223,936	-0,055	-0,064
-593,225	-118,953	-0,149	0,019
-592,211	800,000	-0,047	-0,148
-591,196	-90,847	0,050	0,010
-590,182	202,474	0,061	0,069
-589,167	800,000	0,031	-0,064
-588,152	53,609	-0,031	-0,021
-587,138	102,111	-0,043	0,037
-586,123	-77,117	-0,158	-0,040
-585,109	597,411	-0,019	-0,034
-584,094	-200,000	-0,014	0,096
-583,079	-200,000	0,002	0,052
-582,065	800,000	-0,041	-0,092
-581,050	800,000	-0,067	0,164
-580,036	62,727	0,098	-0,071
-579,021	-91,161	-0,158	-0,033
-578,006	-113,932	-0,039	-0,005
-576,992	-200,000	-0,019	-0,067
-575,977	-200,000	0,013	0,089
-574,963	-200,000	0,001	-0,008
-573,948	-200,000	0,000	-0,029
-572,934	800,000	0,012	0,031
-571,919	-3,322	-0,049	-0,025
-570,904	-200,000	0,029	-0,105
-569,890	-84,794	-0,111	0,025
-568,875	800,000	-0,018	0,041
-567,861	-200,000	-0,021	0,169
-566,846	-23,061	0,049	-0,021
-565,831	163,933	0,045	0,046
-564,817	800,000	0,025	-0,076
-563,802	-9,955	-0,068	-0,033
-562,788	-27,611	-0,142	0,060
-561,773	-137,214	0,023	0,002
-560,758	-200,000	-0,006	-0,100
-559,744	24,341	0,074	-0,044
-558,729	-46,915	0,064	-0,023
-557,715	-200,000	0,011	-0,048
-556,700	800,000	-0,065	-0,181
-555,685	-200,000	0,004	-0,070
-554,671	18,753	0,123	-0,071
-553,656	800,000	0,013	-0,041
-552,642	800,000	-0,001	-0,003
-551,627	-200,000	0,003	0,044
-550,612	-84,726	0,074	0,017
-549,598	800,000	-0,041	0,099
-548,583	-36,356	-0,062	-0,024
-547,569	212,455	0,052	-0,060
-546,554	-57,168	0,130	-0,041
-545,539	-200,000	-0,016	0,105
-544,525	271,250	0,030	-0,038
-543,510	-186,434	0,038	0,000
-542,496	173,938	-0,101	0,106
-541,481	84,950	-0,134	0,107
-540,466	-200,000	-0,036	-0,153
-539,452	249,183	0,080	-0,099
-538,437	19,595	0,154	0,090
-537,423	-182,854	-0,030	0,000
-536,408	160,713	-0,109	-0,110
-535,393	800,000	0,057	-0,135
-534,379	-200,000	0,014	-0,080
-533,364	-200,000	-0,005	0,132
-532,350	-200,000	0,044	0,208
-531,335	136,048	0,031	-0,030
-530,321	-200,000	0,020	0,145
-529,306	101,424	-0,084	-0,071
-528,291	-200,000	0,019	-0,206
-527,277	177,886	-0,047	-0,050
-526,262	668,945	-0,019	-0,036
-525,248	-159,977	-0,073	-0,003
-524,233	-200,000	0,002	-0,109
-523,218	-200,000	-0,020	-0,129
-522,204	74,352	-0,030	0,023
-521,189	38,647	-0,075	0,049
-520,175	203,309	-0,007	0,008
-519,160	800,000	-0,034	-0,070
-518,145	-200,000	0,020	-0,078
-517,131	-123,710	-0,161	0,018
-516,116	65,409	0,048	0,035
-515,102	-73,989	-0,069	-0,018
-514,087	-200,000	-0,003	-0,052
-513,072	57,446	0,042	-0,030
-512,058	321,838	-0,050	-0,069
-511,043	33,210	-0,095	0,060
-510,029	-200,000	0,003	0,102
-509,014	-9,805	0,065	0,031
-507,999	245,512	0,079	0,097
-506,985	60,016	0,074	0,053
-505,970	227,358	0,022	-0,026
-504,956	-26,300	-0,045	0,019
-503,941	-30,222	0,171	0,070
-502,926	340,534	-0,092	0,131
-501,912	-100,028	0,109	0,020
-500,897	36,736	-0,041	0,026
-499,883	-68,296	-0,069	0,019
-498,868	-142,070	-0,158	-0,011
-497,853	-94,873	-0,066	0,013
-496,839	-76,538	-0,103	0,026
-495,824	647,459	0,069	0,129
-494,810	-200,000	-0,000	0,048
-493,795	306,983	0,029	-0,040
-492,781	310,484	0,106	0,145
-491,766	-200,000	-0,010	-0,091
-490,751	-56,016	-0,186	-0,060
-489,737	-17,630	0,085	-0,038
-488,722	-100,265	0,141	-0,025
-487,708	-191,081	-0,088	-0,001
-486,693	-131,250	0,090	-0,009
-485,678	161,153	0,074	-0,076
-484,664	-98,726	-0,053	-0,010
-483,649	257,384	0,060	-0,075
-482,635	148,413	-0,087	-0,085
-481,620	-200,000	0,004	0,013
-480,605	-200,000	-0,000	0,052
-479,591	-200,000	-0,003	-0,086
-478,576	-62,656	-0,158	-0,047
-477,562	-200,000	0,014	0,047
-476,547	-4,562	0,079	0,039
-475,532	43,063	-0,059	0,039
-474,518	-90,961	-0,172	-0,036
-473,503	-200,000	0,014	0,132
-472,489	18,276	-0,076	0,044
-471,474	209,720	-0,049	0,055
-470,459	32,563	-0,092	-0,058
-469,445	178,080	-0,074	-0,078
-468,430	-200,000	0,027	-0,193
-467,416	40,568	0,062	0,040
-466,401	-2,093	-0,056	-0,028
-465,386	800,000	0,025	-0,052
-464,372	-200,000	-0,017	-0,074
-463,357	62,579	-0,055	0,040
-462,343	800,000	-0,059	-0,175
-461,328	-200,000	-0,018	0,084
-460,313	185,994	0,065	0,070
-459,299	27,268	-0,109	0,066
-458,284	800,000	0,067	0,180
-457,270	189,725	-0,031	0,034
-456,255	800,000	0,040	-0,116
-455,241	274,928	-0,052	0,067
-454,226	-200,000	0,019	0,070
-453,211	-90,250	-0,055	-0,011
-452,197	519,233	0,049	0,084
-451,182	800,000	-0,076	0,167
-450,168	94,041	-0,061	-0,050
-449,153	745,545	0,053	0,105
-448,138	139,677	-0,112	-0,107
-447,124	253,790	0,045	-0,056
-446,109	76,223	-0,108	0,083
-445,095	300,837	0,077	-0,103
-444,080	509,394	0,034	0,057
-443,065	-200,000	0,031	0,129
-442,051	-38,262	-0,057	0,022
-441,036	800,000	-0,045	-0,094
-440,022	-30,773	0,094	-0,038
-439,007	-200,000	-0,023	-0,124
-437,992	-153,922	0,110	0,005
-436,978	-200,000	-0,009	0,065
-435,963	800,000	0,033	0,071
-434,949	-89,071	0,125	-0,027
-433,934	-200,000	-0,018	-0,074
-432,919	800,000	0,014	-0,039
-431,905	-40,585	0,170	-0,064
-430,890	-200,000	0,019	-0,068
-429,876	246,985	0,044	0,054
-428,861	68,449	0,092	0,068
-427,846	-200,000	0,007	-0,035
-426,832	489,517	0,043	0,072
-425,817	119,523	-0,024	0,022
-424,803	156,133	0,057	-0,057
-423,788	800,000	-0,032	-0,092
-422,773	-200,000	0,032	0,135
-421,759	-50,482	-0,131	0,045
-420,744	-71,811	-0,118	-0,032
-419,730	-131,533	0,145	-0,014
-418,715	-56,788	-0,060	-0,019
-417,701	199,559	0,065	0,073
-416,686	227,869	0,044	0,052
-415,671	-86,007	0,176	-0,039
-414,657	-7,725	-0,127	0,062
-413,642	800,000	-0,051	0,114
-412,628	469,723	-0,096	-0,156
-411,613	800,000	-0,055	-0,141
-410,598	549,148	0,088	0,153
-409,584	-78,390	0,019	-0,005
-408,569	-41,919	-0,019	-0,007
-407,555	-36,523	0,071	-0,028
-406,540	27,053	-0,017	0,010
-405,525	516,484	-0,045	0,077
-404,511	-48,143	-0,163	-0,057
-403,496	0,416	0,117	-0,060
-402,482	622,135	0,074	-0,135
-401,467	800,000	0,053	0,127
-400,452	-200,000	0,010	-0,043
-399,438	-89,334	-0,085	0,018
-398,423	-123,007	-0,037	-0,004
-397,409	-200,000	-0,014	0,139
-396,394	800,000	0,022	-0,049
-395,379	452,756	0,023	-0,037
-394,365	52,373	-0,117	0,080
-393,350	-200,000	0,025	0,131
-392,336	103,584	-0,047	0,040
-391,321	800,000	0,028	-0,069
-390,306	203,591	-0,027	0,030
-389,292	-41,215	0,066	0,024
-388,277	-82,233	0,050	0,012
-387,263	-64,741	-0,078	0,023
-386,248	-200,000	0,021	0,082
-385,233	-123,974	-0,063	0,007
-384,219	-200,000	0,020	-0,067
-383,204	437,585	-0,042	-0,067
-382,190	-101,434	-0,080	0,014
-381,175	-200,000	0,004	0,045
-380,160	800,000	0,036	0,089
-379,146	298,179	0,101	0,134
-378,131	62,590	0,143	-0,103
-377,117	53,553	0,061	0,043
-376,102	103,575	-0,070	-0,059
-375,088	-22,037	0,083	0,036
-374,073	-166,842	0,133	-0,004
-373,058	157,334	-0,074	-0,074
-372,044	-162,026	0,214	-0,008
-371,029	282,741	0,054	0,070
-370,015	-147,470	0,072	-0,004
-369,000	800,000	-0,059	0,128
-367,985	-200,000	-0,224	0,001
-366,971	800,000	0,020	0,048
-365,956	230,148	-0,022	0,026
-364,942	-200,000	-0,037	0,168
-363,927	20,825	0,005	0,003
-362,912	250,042	0,052	0,064
-361,898	-62,933	-0,043	0,013
-360,883	-200,000	-0,031	-0,134
-359,869	-9,012	0,054	0,026
-358,854	-2,169	-0,041	-0,021
-357,839	22,564	-0,109	0,064
-356,825	-100,907	0,079	-0,014
-355,810	421,944	0,063	0,098
-354,796	-50,383	-0,042	0,014
-353,781	183,580	-0,110	-0,118
-352,766	-192,910	-0,042	-0,000
-351,752	800,000	0,017	0,047
-350,737	133,896	0,082	0,077
-349,723	-200,000	-0,011	0,220
-348,708	-200,000	-0,001	-0,031
-347,693	105,260	0,037	0,032
-346,679	46,706	0,009	0,006
-345,664	633,763	-0,098	-0,179
-344,650	-154,912	-0,151	0,007
-343,635	-200,000	-0,007	-0,044
-342,620	-161,372	0,043	0,002
-341,606	800,000	-0,023	0,050
-340,591	18,204	0,005	0,003
-339,577	-71,926	-0,077	-0,021
-338,562	-68,386	0,062	0,017
-337,548	-71,965	0,052	-0,014
-336,533	23,692	-0,093	-0,055
-335,518	-34,743	-0,093	0,037
-334,504	-200,000	0,008	0,086
-333,489	210,676	0,036	-0,041
-332,475	-200,000	-0,004	-0,162
-331,460	257,156	-0,080	-0,100
-330,445	-65,375	-0,168	0,049
-329,431	-200,000	0,002	0,063
-328,416	-200,000	0,021	-0,105
-327,402	-11,815	0,082	0,039
-326,387	-200,000	0,023	0,102
-325,372	-200,000	0,007	-0,081
-324,358	800,000	0,016	0,040
-323,343	198,943	0,061	0,067
-322,329	-200,000	-0,014	-0,130
-321,314	-200,000	0,030	-0,148
-320,299	543,004	0,052	0,090
-319,285	-200,000	0,012	0,134
-318,270	800,000	0,051	0,103
-317,256	-58,550	-0,133	-0,041
-316,241	261,623	-0,062	-0,078
-315,226	-200,000	-0,013	0,063
-314,212	-8,092	0,133	0,065
-313,197	69,112	0,085	0,063
-312,183	114,203	0,088	-0,077
-311,168	-200,000	-0,012	0,061
-310,153	-167,578	-0,090	-0,003
-309,139	-152,123	0,201	-0,010
-308,124	-64,231	-0,080	0,023
-307,110	-200,000	0,023	0,076
-306,095	385,580	0,082	-0,122
-305,080	-96,020	0,085	0,016
-304,066	82,871	0,088	-0,069
-303,051	-30,250	-0,083	-0,034
-302,037	-83,866	0,125	-0,028
-301,022	-137,388	-0,091	-0,007
-300,008	-78,075	-0,072	-0,018
-298,993	-67,335	0,133	0,037
-297,978	195,764	0,057	0,063
-296,964	395,682	0,042	-0,063
-295,949	800,000	-0,023	-0,050
-294,935	-200,000	-0,017	-0,076
-293,920	800,000	0,015	0,042
-292,905	18,748	0,046	0,026
-291,891	-200,000	0,027	0,088
-290,876	592,542	0,079	0,142
-289,862	290,205	0,029	0,038
-288,847	800,000	0,030	-0,082
-287,832	56,196	-0,046	-0,032
-286,818	-200,000	-0,003	-0,014
-285,803	-200,000	-0,022	0,095
-284,789	-102,813	0,144	-0,024
-283,774	-98,387	0,106	-0,019
-282,759	-44,348	-0,147	-0,053
-281,745	-154,801	-0,077	0,004
-280,730	-99,953	0,011	-0,002
-279,716	-108,403	-0,014	0,002
-278,701	32,325	0,115	-0,071
-277,686	120,144	0,044	0,039
-276,672	253,614	0,077	0,095
-275,657	-68,721	-0,031	-0,008
-274,643	-200,000	0,010	-0,111
-273,628	-59,500	0,025	0,008
-272,613	45,386	0,010	0,007
-271,599	541,202	-0,015	-0,026
-270,584	800,000	-0,023	0,052
-269,570	27,603	0,029	0,018
-268,555	364,011	-0,020	-0,028
-267,540	-98,561	0,119	0,022
-266,526	47,532	-0,038	0,026
-265,511	-200,000	0,001	0,023
-264,497	36,980	-0,117	-0,074
-263,482	-200,000	-0,007	-0,075
-262,467	69,291	-0,017	-0,012
-261,453	-200,000	0,024	-0,121
-260,438	800,000	-0,057	0,114
-259,424	-134,616	0,059	-0,005
-258,409	268,748	0,079	-0,099
-257,395	-200,000	0,015	-0,078
-256,380	130,742	0,103	0,095
-255,365	-127,722	0,137	0,014
-254,351	800,000	-0,035	0,074
-253,336	425,034	-0,043	0,067
-252,322	-200,000	-0,038	-0,141
-251,307	800,000	-0,045	-0,124
-250,292	-138,920	0,062	0,005
-249,278	288,406	-0,026	-0,034
-248,263	33,993	0,150	-0,094
-247,249	800,000	-0,032	0,100
-246,234	800,000	-0,055	0,141
-245,219	-108,771	-0,037	0,006
-244,205	171,913	0,034	-0,035
-243,190	-200,000	-0,001	0,117
-242,176	306,478	0,056	0,075
-241,161	69,633	0,161	-0,119
-240,146	-200,000	-0,004	0,124
-239,132	-200,000	0,014	-0,058
-238,117	-0,583	0,013	-0,006
-237,103	-115,563	0,042	0,006
-236,088	118,992	0,012	-0,010
-235,073	28,364	0,018	0,011
-234,059	-23,022	0,037	0,016
-233,044	800,000	-0,030	0,081
-232,030	59,359	-0,083	-0,059
-231,015	574,603	-0,047	0,083
-230,000	-62,267	0,110	-0,033
-228,986	-131,827	0,070	-0,007
-227,971	-200,000	0,015	0,083
-226,957	-57,748	-0,093	0,029
-225,942	800,000	0,069	0,182
-224,927	174,108	0,087	-0,091
-223,913	-61,289	-0,112	-0,034
-222,898	800,000	0,027	-0,083
-221,884	-27,382	0,058	-0,024
-220,869	54,523	0,074	0,051
-219,855	227,371	0,034	0,039
-218,840	-94,892	-0,043	-0,008
-217,825	-200,000	-0,006	0,050
-216,811	95,914	-0,138	-0,113
-215,796	185,014	-0,083	-0,089
-214,782	545,285	0,096	0,166
-213,767	120,517	-0,054	0,049
-212,752	800,000	-0,008	0,018
-211,738	-30,838	0,051	0,021
-210,723	696,915	-0,010	-0,019
-209,709	-58,192	-0,094	0,029
-208,694	-128,380	-0,142	0,014
-207,679	-131,688	0,087	0,008
-206,665	-75,562	0,073	0,019
-205,650	143,607	0,063	-0,061
-204,636	-135,496	0,193	0,016
-203,621	86,876	0,112	0,089
-202,606	-61,499	-0,143	0,043
-201,592	-200,000	0,010	-0,052
-200,577	-200,000	-0,003	-0,110
-199,563	63,780	0,025	0,018
-198,548	258,108	-0,052	-0,065
-197,533	169,150	0,051	0,052
-196,519	-200,000	-0,024	0,104
-195,504	-14,368	-0,078	0,036
-194,490	-200,000	0,003	-0,102
-193,475	-200,000	-0,001	0,014
-192,460	-81,753	-0,064	-0,015
-191,446	-200,000	0,002	-0,023
-190,431	-0,753	0,147	0,075
-189,417	137,441	-0,063	0,059
-188,402	-200,000	-0,007	0,046
-187,387	-200,000	-0,216	-0,000
-186,373	762,318	-0,022	0,043
-185,358	800,000	-0,037	-0,087
-184,344	-71,898	0,208	0,055
-183,329	-5,684	0,088	0,043
-182,315	-31,780	0,052	-0,021
-181,300	17,991	0,097	0,055
-180,285	139,682	-0,046	-0,043
-179,271	16,143	-0,155	-0,088
-178,256	172,404	0,081	-0,084
-177,242	-200,000	-0,014	0,086
-176,227	294,193	0,055	0,072
-175,212	-200,000	0,060	0,211
-174,198	6,819	-0,049	0,026
-173,183	674,093	-0,079	-0,148
-172,169	71,128	-0,070	-0,052
-171,154	328,234	-0,060	-0,083
-170,139	-200,000	0,016	0,064
-169,125	297,246	0,068	-0,090
-168,110	-132,693	0,216	0,020
-167,096	-4,987	-0,063	0,031
-166,081	132,337	0,109	-0,101
-165,066	-200,000	0,013	0,049
-164,052	-200,000	0,010	0,061
-163,037	-200,000	0,010	-0,129
-162,023	-99,068	0,112	0,020
-161,008	-78,518	-0,097	0,024
-159,993	104,366	-0,115	0,097
-158,979	-200,000	0,006	-0,035
-157,964	47,557	-0,124	-0,083
-156,950	800,000	0,026	0,058
-155,935	-200,000	-0,024	0,105
-154,920	144,719	0,060	-0,057
-153,906	42,135	0,196	0,127
-152,891	-144,607	-0,053	-0,003
-151,877	800,000	-0,088	0,217
-150,862	253,244	-0,026	0,032
-149,847	-12,930	-0,111	0,052
-148,833	78,878	0,031	0,024
-147,818	-109,808	-0,063	0,009
-146,804	800,000	0,024	0,048
-145,789	-200,000	0,005	-0,055
-144,775	-200,000	-0,016	-0,103
-143,760	212,643	0,001	0,001
-142,745	-3,057	-0,068	0,034
-141,731	-200,000	-0,005	-0,073
-140,716	-200,000	0,034	0,129
-139,702	494,487	0,061	0,101
-138,687	-200,000	0,002	0,019
-137,672	-58,429	-0,185	-0,057
-136,658	-200,000	0,016	-0,083
-135,643	291,119	0,071	-0,093
-134,629	800,000	0,045	0,119
-133,614	-76,302	0,154	0,039
-132,599	-74,362	-0,092	0,024
-131,585	-19,585	0,094	0,041
-130,570	-200,000	-0,037	-0,152
-129,556	-36,534	-0,044	-0,017
-128,541	800,000	-0,071	0,141
-127,526	652,104	-0,020	-0,037
-126,512	-21,621	0,073	0,032
-125,497	800,000	0,059	0,124
-124,483	2,164	-0,037	0,019
-123,468	-17,204	0,070	-0,032
-122,453	-200,000	-0,041	-0,174
-121,439	709,879	0,047	0,089
-120,424	-200,000	0,009	0,080
-119,410	-81,288	0,059	0,014
-118,395	78,001	0,112	0,085
-117,380	121,287	-0,125	-0,111
-116,366	267,349	-0,020	0,025
-115,351	-200,000	-0,002	-0,114
-114,337	-36,983	-0,161	-0,062
-113,322	800,000	0,005	-0,017
-112,307	176,621	0,018	-0,019
-111,293	125,224	0,043	0,039
-110,278	-189,797	-0,027	0,000
-109,264	800,000	-0,031	0,088
-108,249	404,476	-0,063	-0,096
-107,234	-157,351	-0,083	-0,004
-106,220	534,871	-0,060	0,103
-105,205	800,000	0,035	0,085
-104,191	-39,704	0,090	-0,034
-103,176	6,505	0,114	0,061
-102,162	-200,000	0,037	-0,000
-101,147	52,064	0,082	0,056
-100,132	-200,000	-0,025	0,114
-99,118	7,724	0,051	-0,027
-98,103	56,890	-0,020	0,014
-97,089	315,713	-0,084	0,114
-96,074	-200,000	0,004	-0,027
-95,059	-200,000	0,013	0,049
-94,045	-123,142	-0,098	-0,011
-93,030	-200,000	-0,012	-0,086
-92,016	-48,871	0,085	-0,029
-91,001	446,656	-0,031	-0,049
-89,986	-200,000	0,002	0,013
-88,972	409,136	-0,097	0,147
-87,957	-76,028	-0,145	-0,036
-86,943	-37,032	-0,070	-0,027
-85,928	-200,000	-0,138	0,000
-84,913	-138,774	0,107	-0,008
-83,899	43,201	0,095	-0,062
-82,884	-200,000	0,010	0,065
-81,870	-200,000	0,010	-0,064
-80,855	82,968	0,096	0,074
-79,840	277,117	-0,080	-0,102
-78,826	-200,000	0,001	-0,087
-77,811	800,000	-0,044	-0,123
-76,797	188,545	0,037	-0,039
-75,782	-200,000	0,004	0,149
-74,767	-200,000	-0,033	0,121
-73,753	72,029	0,081	-0,060
-72,738	-15,813	-0,059	0,027
-71,724	-200,000	0,005	-0,032
-70,709	287,176	-0,031	-0,041
-69,694	-150,968	-0,120	-0,006
-68,680	13,939	0,162	0,090
-67,665	800,000	0,016	-0,049
-66,651	186,229	-0,054	-0,057
-65,636	-200,000	0,011	-0,040
-64,622	60,111	0,058	-0,041
-63,607	-200,000	-0,013	-0,082
-62,592	267,112	-0,013	-0,016
-61,578	-200,000	0,006	0,111
-60,563	-97,795	-0,022	0,004
-59,549	800,000	-0,073	0,197
-58,534	62,444	-2,243	-1,598
-57,519	734,905	-0,995	-1,912
-56,505	-200,000	-0,331	-4,287
-55,490	800,000	0,766	1,734
-54,476	800,000	5,329	11,327
-53,461	-200,000	22,880	351,896
-52,446	800,000	758,884	2281,564
-51,432	508,833	1637,424	2726,615
-50,417	68,730	1545,095	1131,122
-49,403	21,142	1047,880	605,771
-48,388	11,590	720,844	393,648
-47,373	32,463	682,377	420,025
-46,359	18,899	667,007	380,555
-45,344	7,436	663,025	352,756
-44,330	7,181	661,391	351,302
-43,315	7,162	660,019	350,518
-42,300	7,212	658,784	349,958
-41,286	7,153	658,088	349,445
-40,271	7,187	657,118	348,991
-39,257	7,192	656,385	348,598
-38,242	7,411	655,486	348,591
-37,227	7,324	654,876	348,062
-36,213	7,208	654,265	347,468
-35,198	7,235	653,459	347,085
-34,184	7,446	653,061	347,324
-33,169	7,207	652,126	346,288
-32,154	7,362	651,776	346,428
-31,140	7,307	650,860	345,808
-30,125	7,410	649,882	345,500
-29,111	7,322	649,507	345,094
-28,096	7,288	649,312	344,903
-27,082	7,294	648,595	344,521
-26,067	7,246	647,927	344,048
-25,052	7,218	647,585	343,791
-24,038	7,231	647,082	343,538
-23,023	7,273	646,492	343,304
-22,009	7,397	645,865	343,227
-20,994	7,418	645,337	342,978
-19,979	7,373	644,961	342,667
-18,965	7,440	644,366	342,483
-17,950	7,346	644,193	342,173
-16,936	7,278	643,602	341,697
-15,921	7,370	643,064	341,598
-14,906	7,299	642,465	341,112
-13,892	7,254	642,158	340,838
-12,877	7,198	641,519	340,364
-11,863	7,267	641,247	340,355
-10,848	7,146	640,914	339,904
-9,833	7,325	640,482	340,049
-8,819	7,311	639,623	339,548
-7,804	7,444	639,109	339,548
-6,790	7,393	638,672	339,193
-5,775	7,321	638,463	338,914
-4,760	7,223	638,271	338,587
-3,746	7,338	637,757	338,549
-2,731	7,054	637,363	337,716
-1,717	7,083	637,209	337,683
-0,702	7,051	636,433	337,191
0,313	7,430	630,967	335,606
1,327	11,536	595,830	325,127
2,342	19,514	469,177	268,526
3,356	13,439	257,420	142,086
4,371	-15,224	174,726	79,463
5,386	-18,214	164,373	73,069
6,400	-18,309	161,391	71,685
7,415	-17,410	159,832	71,477
8,429	-18,435	158,813	70,460
9,444	-18,427	158,017	70,105
10,459	-18,423	157,808	70,007
11,473	-18,266	157,308	69,864
12,488	-18,195	157,172	69,835
13,502	-18,760	156,743	69,336
14,517	-18,602	156,586	69,345
15,531	-18,726	156,154	69,081
16,546	-18,413	155,853	69,108
17,561	-18,539	155,639	68,941
18,575	-18,645	155,529	68,829
19,590	-18,220	155,260	68,929
20,604	-18,456	154,957	68,664
21,619	-18,339	154,762	68,633
22,634	-18,573	154,538	68,405
23,648	-18,666	154,236	68,216
24,663	-18,316	154,041	68,307
25,677	-18,196	153,924	68,312
26,692	-18,846	153,986	67,993
27,707	-18,689	153,760	67,969
28,721	-18,621	153,443	67,858
29,736	-18,311	153,302	67,952
30,750	-18,568	153,145	67,742
31,765	-18,805	153,080	67,584
32,780	-18,615	152,874	67,586
33,794	-18,670	152,703	67,475
34,809	-18,576	152,591	67,469
35,823	-18,650	152,393	67,337
36,838	-18,272	152,085	67,391
37,853	-18,532	152,063	67,240
38,867	-18,567	152,050	67,210
39,882	-18,533	151,736	67,083
40,896	-18,319	151,501	67,084
41,911	-18,556	151,547	66,976
42,926	-18,531	151,219	66,838
43,940	-18,221	151,141	66,957
44,955	-18,443	150,970	66,761
45,969	-18,631	150,893	66,624
46,984	-18,284	150,713	66,717
47,999	-18,416	150,721	66,647
49,013	-18,353	150,368	66,517
50,028	-18,353	150,441	66,543
51,042	-18,313	150,161	66,434
52,057	-18,509	150,082	66,293
53,071	-18,636	150,078	66,221
54,086	-18,022	149,705	66,363
55,101	-18,235	149,807	66,293
56,115	-18,726	149,483	65,894
57,130	-18,559	149,386	65,931
58,144	-18,474	149,291	65,926
59,159	-18,691	149,064	65,710
60,174	-18,333	148,907	65,816
61,188	-18,075	148,655	65,829
62,203	-18,391	148,621	65,649
63,217	-18,391	148,664	65,662
64,232	-18,643	148,511	65,461
65,247	-18,447	148,083	65,365
66,261	-18,906	148,224	65,191
67,276	-18,251	147,987	65,410
68,290	-18,409	147,850	65,264
69,305	-18,282	147,840	65,318
70,320	-18,350	147,545	65,147
71,334	-18,392	147,456	65,082
72,349	-18,331	147,294	65,035
73,363	-18,711	147,154	64,777
74,378	-18,393	147,062	64,889
75,393	-18,608	146,835	64,676
76,407	-18,316	147,009	64,893
77,422	-18,363	146,577	64,673
78,436	-18,383	146,565	64,652
79,451	-18,326	146,344	64,577
80,466	-18,457	146,206	64,446
81,480	-18,415	146,124	64,424
82,495	-18,407	146,014	64,374
83,509	-18,312	145,988	64,404
84,524	-18,112	145,826	64,426
85,539	-18,291	145,568	64,218
86,553	-18,384	145,404	64,094
87,568	-18,488	145,312	63,996
88,582	-18,070	145,368	64,221
89,597	-18,276	145,197	64,038
90,611	-18,417	145,069	63,907
91,626	-18,336	144,909	63,871
92,641	-18,415	144,867	63,807
93,655	-18,434	144,677	63,709
94,670	-18,455	144,525	63,626
95,684	-18,657	144,468	63,497
96,699	-18,205	144,317	63,645
97,714	-18,480	144,065	63,394
98,728	-18,090	144,037	63,566
99,743	-18,464	144,077	63,396
100,757	-17,833	143,864	63,604
101,772	-18,236	143,793	63,371
102,787	-18,387	143,657	63,232
103,801	-18,476	143,448	63,091
104,816	-18,334	143,342	63,108
105,830	-18,625	143,448	63,007
106,845	-17,893	143,058	63,185
107,860	-18,228	142,982	62,983
108,874	-18,400	142,871	62,846
109,889	-18,577	142,799	62,723
110,903	-18,309	142,669	62,790
111,918	-18,526	142,619	62,657
112,933	-18,256	142,473	62,718
113,947	-17,963	142,316	62,784
114,962	-18,297	142,351	62,633
115,976	-18,324	142,092	62,500
116,991	-18,518	142,025	62,373
118,006	-18,648	141,941	62,267
119,020	-18,385	141,979	62,405
120,035	-18,582	141,696	62,181
121,049	-18,024	141,514	62,362
122,064	-18,303	141,493	62,214
123,079	-18,461	141,442	62,110
124,093	-18,599	141,260	61,959
125,108	-18,224	141,081	62,054
126,122	-18,386	141,066	61,964
127,137	-18,009	141,070	62,140
128,151	-17,909	140,925	62,119
129,166	-18,001	140,670	61,957
130,181	-18,206	140,378	61,726
131,195	-18,541	140,453	61,594
132,210	-18,297	140,321	61,646
133,224	-18,751	140,269	61,403
134,239	-18,007	140,118	61,683
135,254	-18,405	140,017	61,445
136,268	-18,463	139,817	61,325
137,283	-18,258	139,697	61,363
138,297	-18,290	139,597	61,299
139,312	-18,403	139,501	61,198
140,327	-18,260	139,314	61,178
141,341	-18,473	139,250	61,044
142,356	-18,123	139,117	61,144
143,370	-16,815	139,239	61,807
144,385	-11,240	140,509	65,005
145,400	-4,501	141,756	68,787
146,414	-2,384	142,126	69,970
147,429	-1,982	142,037	70,111
148,443	-1,570	141,780	70,174
149,458	-1,477	141,776	70,209
150,473	-1,539	141,859	70,215
151,487	-1,180	141,789	70,344
152,502	-1,162	141,531	70,219
153,516	-1,269	141,567	70,180
154,531	-1,176	141,339	70,104
155,546	-1,458	141,296	69,944
156,560	-1,066	141,272	70,111
157,575	-1,078	141,175	70,051
158,589	-1,186	141,003	69,908
159,604	-1,017	140,839	69,900
160,619	-1,164	140,712	69,762
161,633	-1,059	140,801	69,849
162,648	-0,845	140,703	69,895
163,662	-0,929	140,531	69,764
164,677	-0,864	140,524	69,785
165,692	-0,887	140,281	69,647
166,706	-0,665	140,201	69,705
167,721	-0,386	140,120	69,789
168,735	-0,777	140,108	69,594
169,750	-0,451	139,878	69,626
170,764	-0,969	140,103	69,489
171,779	-0,612	139,868	69,533
172,794	-0,940	139,922	69,401
173,808	-0,787	139,615	69,313
174,823	-0,882	139,544	69,228
175,837	-0,281	139,220	69,340
176,852	-0,534	139,242	69,227
177,867	-0,824	139,229	69,080
178,881	-0,737	139,213	69,106
179,896	-0,756	139,090	69,030
180,910	-0,565	138,910	69,023
181,925	-0,329	138,795	69,070
182,940	-0,756	138,570	68,754
183,954	-1,167	138,686	68,615
184,969	-0,507	138,617	68,880
185,983	-0,469	138,460	68,813
186,998	-0,691	138,430	68,690
188,013	-0,749	138,449	68,667
189,027	-0,510	138,087	68,591
190,042	-0,735	137,995	68,435
191,056	-0,573	137,840	68,427
192,071	-0,711	137,939	68,407
193,086	-0,602	137,893	68,427
194,100	-0,133	137,568	68,475
195,115	-0,607	137,664	68,299
196,129	-0,665	137,475	68,173
197,144	-0,496	137,335	68,175
198,159	-0,484	137,296	68,155
199,173	-0,705	137,181	67,991
200,188	-0,418	137,204	68,128
201,202	-0,728	136,992	67,875
202,217	-0,750	136,931	67,828
203,232	-0,210	136,713	67,960
204,246	-0,670	136,671	67,724
205,261	-0,404	136,488	67,748
206,275	-0,639	136,554	67,668
207,290	-0,190	136,515	67,847
208,304	-0,068	136,248	67,763
209,319	-0,601	136,431	67,606
210,334	-0,197	136,139	67,638
211,348	-0,413	135,920	67,426
212,363	-0,506	135,926	67,381
213,377	-0,614	135,923	67,324
214,392	-0,562	135,899	67,330
215,407	-0,508	135,758	67,279
216,421	-0,189	135,493	67,285
217,436	-0,540	135,600	67,174
218,450	-0,256	135,392	67,193
219,465	-0,309	135,220	67,078
220,480	-0,194	135,273	67,149
221,494	-0,551	135,165	66,929
222,509	0,008	135,078	67,132
223,523	-0,148	134,813	66,924
224,538	-0,269	134,802	66,858
225,553	-0,464	134,707	66,718
226,567	-0,310	134,592	66,724
227,582	-0,029	134,592	66,843
228,596	0,225	134,433	66,872
229,611	-0,605	134,514	66,536
230,626	-0,224	134,287	66,588
231,640	-0,588	134,304	66,427
232,655	-0,332	134,071	66,420
233,669	-0,276	134,027	66,418
234,684	-0,252	133,957	66,387
235,699	-0,087	133,873	66,413
236,713	0,248	133,822	66,531
237,728	-0,339	133,696	66,202
238,742	-0,150	133,593	66,229
239,757	-0,181	133,637	66,231
240,772	-0,298	133,457	66,084
241,786	-0,315	133,390	66,037
242,801	0,226	133,175	66,164
243,815	-0,200	133,143	65,954
244,830	0,104	133,115	66,069
245,844	0,050	132,892	65,928
246,859	0,137	132,912	65,971
247,874	0,170	132,631	65,840
248,888	-0,168	132,725	65,732
249,903	0,218	132,512	65,790
250,917	0,155	132,484	65,743
251,932	-0,084	132,579	65,678
252,947	0,110	132,409	65,674
253,961	-0,014	132,205	65,512
254,976	-0,363	132,153	65,328
255,990	-0,263	132,108	65,343
257,005	0,225	131,936	65,466
258,020	-0,071	132,001	65,363
259,034	0,178	131,877	65,405
260,049	-0,143	131,842	65,241
261,063	0,062	131,627	65,219
262,078	-0,156	131,520	65,064
263,093	0,022	131,541	65,147
264,107	0,503	131,327	65,245
265,122	0,246	131,312	65,119
266,136	0,301	131,216	65,089
267,151	0,220	131,128	65,005
268,166	0,268	131,019	64,966
269,180	0,114	130,951	64,860
270,195	0,485	130,827	64,953
271,209	0,493	130,753	64,914
272,224	0,038	130,822	64,746
273,239	0,655	130,491	64,843
274,253	0,387	130,510	64,731
275,268	0,408	130,428	64,693
276,282	0,195	130,450	64,607
277,297	0,460	130,187	64,584
278,312	0,186	130,133	64,434
279,326	0,241	130,127	64,449
280,341	0,548	129,981	64,503
281,355	0,548	130,038	64,526
282,370	0,086	129,874	64,240
283,384	0,293	129,715	64,244
284,399	0,403	129,754	64,305
285,414	0,425	129,539	64,203
286,428	0,327	129,575	64,172
287,443	0,083	129,713	64,130
288,457	0,458	129,448	64,154
289,472	0,802	129,191	64,167
290,487	0,189	129,213	63,911
291,501	0,466	129,195	64,015
292,516	0,326	129,000	63,853
293,530	0,379	128,929	63,835
294,545	0,280	128,847	63,746
295,560	0,635	128,771	63,854
296,574	0,840	128,798	63,949
297,589	0,684	128,510	63,734
298,603	0,341	128,594	63,624
299,618	0,342	128,479	63,562
300,633	0,337	128,436	63,533
301,647	0,953	128,324	63,733
302,662	0,473	128,109	63,417
303,676	0,569	128,134	63,465
304,691	0,166	128,087	63,266
305,706	0,483	127,897	63,300
306,720	0,486	127,751	63,223
307,735	0,564	127,687	63,219
308,749	0,531	127,655	63,183
309,764	0,772	127,635	63,269
310,779	0,567	127,685	63,202
311,793	0,965	127,380	63,212
312,808	0,440	127,319	62,956
313,822	0,384	127,325	62,930
314,837	0,653	127,146	62,949
315,852	0,810	127,176	63,024
316,866	0,640	126,937	62,829
317,881	0,704	127,014	62,888
318,895	0,464	126,780	62,666
319,910	0,514	126,789	62,686
320,925	0,794	126,624	62,715
321,939	0,656	126,501	62,592
322,954	0,514	126,476	62,515
323,968	0,506	126,511	62,523
324,983	0,317	126,478	62,422
325,997	0,497	126,278	62,393
327,012	0,292	126,266	62,296
328,027	1,109	125,937	62,467
329,041	0,818	126,017	62,381
330,056	0,568	125,976	62,251
331,070	0,527	125,835	62,159
332,085	0,823	125,828	62,272
333,100	0,772	125,696	62,180
334,114	0,955	125,606	62,206
335,129	0,581	125,518	62,002
336,143	1,183	125,416	62,195
337,158	0,818	125,349	62,005
338,173	1,074	125,311	62,086
339,187	0,942	125,220	61,982
340,202	0,908	125,108	61,906
341,216	0,629	125,104	61,784
342,231	0,695	125,045	61,777
343,246	0,991	124,866	61,804
344,260	0,967	124,882	61,797
345,275	0,965	124,769	61,735
346,289	0,871	124,733	61,673
347,304	0,983	124,571	61,633
348,319	1,096	124,542	61,659
349,333	0,891	124,331	61,466
350,348	1,101	124,276	61,519
351,362	1,230	124,272	61,564
352,377	1,069	124,189	61,452
353,392	0,923	124,063	61,324
354,406	1,037	124,017	61,342
355,421	197,234	1316,453	1391,374
356,435	155,047	1462,170	1391,840
