DTS Sentinel unit serial number:	SN410029Multiplexer serial number:	ORYXHardware model number:	OX2-SRSoftware version number:	ORYX F/W v4,00 Oryx Data Collector v3.7.2.0data status	okinstallation	B5 Nyhavnadifferential loss correction	single-endedforward channel	channel 2reverse channel	N/Adate	2023/12/13time	18:07:13forward acquisition time	300,00reverse acquisition time	0,00gamma	499,1914k internal	0,3159k external	0,3159temperature offset calibration	1,0000default loss term (dB/km)	0,3820temperature slope calibration	1,0000multiplexer offset coefficient	1,0000multiplexer slope coefficient	1,0000fibre end	0,00T internal ref (°C)	13,09T ext. ref 1 (°C)	-4,17T ext. ref 2 (°C)	-4,26length (m)	temperature (°C)	Stokes	anti-Stokes-744,400	-65,621	-0,034	-0,010
-743,385	-82,976	-0,395	-0,093
-742,371	-200,000	0,017	0,153
-741,356	-141,091	-0,308	-0,023
-740,342	-200,000	0,001	0,039
-739,327	-197,211	-0,190	0,001
-738,312	-136,295	0,136	-0,012
-737,298	-61,074	-0,212	-0,066
-736,283	-5,384	0,066	-0,034
-735,269	-131,762	-0,287	0,027
-734,254	153,399	0,031	0,031
-733,239	-40,968	-0,506	-0,192
-732,225	-166,460	0,116	0,004
-731,210	573,693	-0,073	0,132
-730,196	-200,000	-0,003	-0,155
-729,181	-16,415	-0,132	-0,062
-728,167	104,823	0,066	-0,057
-727,152	121,572	0,066	-0,060
-726,137	281,393	-0,016	-0,021
-725,123	100,011	-0,158	-0,135
-724,108	22,370	-0,152	0,091
-723,094	-22,848	-0,137	-0,061
-722,079	305,744	-0,043	0,059
-721,064	-200,000	0,020	0,082
-720,050	-200,000	-0,037	0,122
-719,035	11,735	-0,093	-0,053
-718,021	-79,838	-0,045	-0,011
-717,006	-40,599	-0,209	0,079
-715,991	89,766	-0,069	-0,056
-714,977	198,957	0,008	0,010
-713,962	-200,000	-0,047	0,183
-712,948	330,077	0,125	0,178
-711,933	47,027	0,057	0,039
-710,918	-55,692	-0,077	0,025
-709,904	-90,615	-0,135	-0,029
-708,889	107,427	-0,075	-0,065
-707,875	-200,000	0,009	-0,166
-706,860	400,386	0,043	0,066
-705,845	800,000	-0,014	0,034
-704,831	800,000	0,028	0,066
-703,816	800,000	-0,026	0,074
-702,802	28,553	0,024	-0,015
-701,787	157,446	-0,030	-0,031
-700,772	104,457	-0,048	0,042
-699,758	124,008	0,127	-0,118
-698,743	244,961	-0,031	-0,039
-697,729	-200,000	-0,038	0,159
-696,714	-200,000	-0,005	0,075
-695,699	249,569	-0,100	0,124
-694,685	-138,026	0,037	0,003
-693,670	-200,000	0,081	-0,268
-692,656	385,759	-0,067	-0,103
-691,641	800,000	0,014	0,039
-690,627	-200,000	-0,016	0,098
-689,612	178,808	-0,062	-0,066
-688,597	39,599	-0,134	0,088
-687,583	96,782	0,034	-0,029
-686,568	9,300	-0,037	-0,020
-685,554	173,784	-0,085	0,091
-684,539	-101,442	0,054	0,010
-683,524	57,793	-0,134	0,096
-682,510	800,000	-0,021	-0,047
-681,495	36,643	-0,134	-0,087
-680,481	411,813	0,016	0,025
-679,466	800,000	-0,024	-0,049
-678,451	-200,000	-0,048	-0,161
-677,437	800,000	-0,021	0,049
-676,422	800,000	0,014	-0,045
-675,408	-26,811	-0,129	0,055
-674,393	156,859	0,086	0,088
-673,378	5,255	-0,031	0,017
-672,364	-95,203	-0,030	-0,006
-671,349	-200,000	-0,004	-0,077
-670,335	9,090	-0,072	0,040
-669,320	-63,344	0,039	-0,012
-668,305	-200,000	0,008	0,084
-667,291	425,350	-0,107	0,170
-666,276	-200,000	0,012	-0,143
-665,262	-134,122	-0,153	-0,014
-664,247	185,554	0,083	-0,091
-663,232	-29,493	0,095	-0,040
-662,218	-200,000	-0,008	-0,080
-661,203	-145,861	-0,063	-0,004
-660,189	-39,408	0,100	0,038
-659,174	214,787	-0,108	-0,126
-658,159	-111,124	-0,038	0,006
-657,145	363,326	-0,053	-0,078
-656,130	260,157	0,051	0,065
-655,116	-104,369	0,116	-0,019
-654,101	462,351	-0,043	-0,071
-653,086	616,630	-0,043	0,080
-652,072	800,000	-0,037	-0,106
-651,057	800,000	-0,009	-0,027
-650,043	800,000	-0,029	-0,061
-649,028	4,003	-0,075	0,040
-648,014	156,505	0,045	-0,046
-646,999	276,255	-0,026	0,034
-645,984	82,854	-0,126	-0,100
-644,970	180,468	-0,060	-0,064
-643,955	800,000	-0,032	-0,085
-642,941	800,000	-0,022	-0,065
-641,926	-127,623	0,092	-0,010
-640,911	-132,236	-0,062	0,006
-639,897	-200,000	0,026	0,121
-638,882	116,645	0,084	0,076
-637,868	43,989	-0,014	-0,010
-636,853	17,775	-0,134	-0,078
-635,838	230,549	-0,070	-0,084
-634,824	641,743	0,054	0,101
-633,809	-141,365	0,147	-0,011
-632,795	56,378	0,012	-0,008
-631,780	-116,667	0,060	0,008
-630,765	800,000	-0,028	0,077
-629,751	128,098	-0,150	-0,140
-628,736	8,929	-0,132	-0,073
-627,722	-44,774	0,110	0,040
-626,707	258,523	-0,088	0,111
-625,692	35,806	-0,141	-0,091
-624,678	21,109	-0,066	0,039
-623,663	84,666	-0,050	0,040
-622,649	422,474	-0,073	-0,116
-621,634	-58,185	0,080	0,025
-620,619	-59,648	0,071	-0,022
-619,605	78,368	-0,098	-0,077
-618,590	525,824	0,031	-0,054
-617,576	367,586	-0,016	-0,023
-616,561	800,000	-0,017	0,038
-615,546	306,209	0,023	0,032
-614,532	352,555	-0,026	0,038
-613,517	246,694	-0,015	0,019
-612,503	414,926	0,082	0,128
-611,488	210,824	0,053	0,062
-610,474	480,706	-0,011	-0,019
-609,459	-109,960	-0,099	0,015
-608,444	184,810	0,025	0,027
-607,430	-200,000	0,017	-0,121
-606,415	-200,000	-0,001	0,007
-605,401	303,975	-0,066	0,090
-604,386	103,061	0,101	0,087
-603,371	800,000	0,040	0,102
-602,357	-119,777	-0,144	0,018
-601,342	-200,000	0,017	0,057
-600,328	-17,332	-0,078	-0,036
-599,313	211,214	-0,018	-0,021
-598,298	-53,038	0,079	0,027
-597,284	-84,805	-0,030	-0,007
-596,269	-29,942	0,057	-0,024
-595,255	-28,479	0,048	0,020
-594,240	25,331	-0,122	-0,074
-593,225	800,000	0,016	0,047
-592,211	-131,028	-0,078	0,008
-591,196	19,376	0,118	-0,070
-590,182	75,329	-0,144	-0,111
-589,167	-84,604	0,126	-0,029
-588,152	-200,000	0,011	0,095
-587,138	271,853	0,129	0,167
-586,123	-200,000	-0,039	0,153
-585,109	169,945	0,132	-0,139
-584,094	-51,150	-0,250	0,085
-583,079	-200,000	0,030	-0,145
-582,065	260,144	-0,038	-0,048
-581,050	800,000	0,011	-0,034
-580,036	800,000	-0,064	-0,136
-579,021	402,612	-0,058	-0,090
-578,006	-92,270	0,095	0,019
-576,992	-16,689	0,017	-0,008
-575,977	52,403	-0,114	0,080
-574,963	-57,756	-0,041	0,013
-573,948	-200,000	-0,010	0,106
-572,934	98,076	-0,095	-0,080
-571,919	-116,488	-0,164	0,022
-570,904	-183,446	-0,026	-0,000
-569,890	6,019	-0,175	-0,095
-568,875	180,194	-0,049	0,053
-567,861	-55,130	0,207	0,068
-566,846	-55,049	0,094	0,031
-565,831	-90,883	0,123	-0,026
-564,817	800,000	-0,028	-0,079
-563,802	405,175	0,083	-0,128
-562,788	-200,000	-0,003	-0,060
-561,773	16,831	0,055	-0,032
-560,758	139,698	-0,021	-0,021
-559,744	572,139	-0,042	0,075
-558,729	-200,000	0,018	0,149
-557,715	691,330	0,065	0,126
-556,700	122,940	0,055	0,051
-555,685	-49,717	0,085	-0,030
-554,671	6,503	0,032	0,017
-553,656	29,657	0,046	-0,029
-552,642	-200,000	-0,007	0,088
-551,627	-200,000	0,016	0,064
-550,612	-77,152	-0,128	-0,032
-549,598	-138,474	-0,082	-0,007
-548,583	-25,293	-0,031	-0,013
-547,569	-200,000	0,011	0,076
-546,554	-117,927	0,110	-0,014
-545,539	84,220	-0,020	0,016
-544,525	-200,000	0,012	0,044
-543,510	-154,349	0,133	0,006
-542,496	-200,000	0,021	-0,155
-541,481	-200,000	0,009	-0,055
-540,466	-18,730	-0,005	-0,002
-539,452	326,940	-0,025	-0,035
-538,437	-10,907	-0,029	-0,014
-537,423	467,919	0,077	0,126
-536,408	-127,710	-0,055	-0,006
-535,393	-200,000	-0,006	-0,095
-534,379	-99,131	0,029	0,005
-533,364	63,416	0,050	0,036
-532,350	-200,000	-0,013	-0,055
-531,335	-119,417	0,123	-0,015
-530,321	800,000	-0,034	0,105
-529,306	-200,000	-0,001	0,040
-528,291	-81,390	0,058	-0,014
-527,277	138,754	-0,094	-0,090
-526,262	-200,000	0,001	0,085
-525,248	-130,551	-0,079	0,008
-524,233	-200,000	0,048	0,160
-523,218	-200,000	0,000	0,006
-522,204	389,457	-0,046	-0,070
-521,189	-200,000	-0,025	-0,084
-520,175	-55,766	-0,246	0,080
-519,160	53,627	-0,117	0,082
-518,145	-147,085	0,186	0,011
-517,131	18,687	0,046	-0,027
-516,116	-95,354	0,016	0,003
-515,102	217,851	0,057	-0,067
-514,087	-11,112	-0,083	0,040
-513,072	800,000	0,042	-0,129
-512,058	411,583	-0,055	-0,086
-511,043	332,342	0,092	-0,130
-510,029	-104,649	0,066	-0,011
-509,014	749,520	-0,045	0,089
-507,999	-121,790	0,133	0,016
-506,985	-85,611	-0,136	-0,031
-505,970	-200,000	0,014	-0,057
-504,956	-53,645	0,116	0,038
-503,941	446,246	0,044	0,071
-502,926	-158,954	0,107	0,004
-501,912	-157,878	-0,099	-0,004
-500,897	-200,000	0,009	0,130
-499,883	-200,000	-0,022	-0,074
-498,868	-121,229	-0,021	-0,003
-497,853	52,992	-0,139	-0,097
-496,839	-76,551	0,100	-0,026
-495,824	800,000	0,044	0,095
-494,810	751,249	0,038	0,075
-493,795	-200,000	-0,003	0,103
-492,781	-200,000	0,019	-0,068
-491,766	-10,082	0,025	-0,012
-490,751	-200,000	-0,011	-0,181
-489,737	-200,000	-0,010	0,095
-488,722	423,304	0,035	0,055
-487,708	505,773	-0,047	0,080
-486,693	-200,000	0,008	0,057
-485,678	-200,000	0,006	-0,053
-484,664	-46,666	-0,160	-0,057
-483,649	177,596	0,115	0,122
-482,635	-113,650	-0,042	-0,006
-481,620	16,235	0,015	0,008
-480,605	60,669	0,106	-0,077
-479,591	657,328	0,081	0,153
-478,576	800,000	0,034	0,081
-477,562	-76,909	0,072	-0,018
-476,547	-93,423	-0,101	0,020
-475,532	-98,381	-0,102	-0,019
-474,518	-128,989	0,075	-0,008
-473,503	404,521	-0,023	-0,036
-472,489	-200,000	0,046	0,150
-471,474	78,937	-0,153	-0,119
-470,459	117,357	0,020	-0,018
-469,445	-126,655	-0,034	0,004
-468,430	196,842	-0,126	-0,140
-467,416	-200,000	-0,015	-0,081
-466,401	69,228	-0,036	-0,027
-465,386	800,000	0,021	-0,053
-464,372	184,217	-0,018	-0,019
-463,357	-100,972	0,038	0,007
-462,343	214,213	-0,118	-0,136
-461,328	-29,685	-0,023	-0,009
-460,313	800,000	0,044	-0,096
-459,299	15,826	0,040	0,023
-458,284	-36,621	0,120	-0,047
-457,270	800,000	0,048	0,144
-456,255	185,431	-0,091	0,099
-455,241	192,745	-0,160	0,176
-454,226	530,811	-0,022	-0,038
-453,211	-10,942	0,060	0,029
-452,197	86,351	0,117	0,094
-451,182	-200,000	-0,005	0,131
-450,168	-200,000	0,001	0,017
-449,153	-200,000	0,009	0,049
-448,138	-200,000	0,013	-0,163
-447,124	-200,000	-0,004	-0,013
-446,109	-33,963	-0,056	-0,022
-445,095	800,000	0,056	-0,114
-444,080	-20,879	0,095	0,042
-443,065	625,941	-0,083	0,152
-442,051	92,466	0,088	0,072
-441,036	132,468	-0,052	-0,048
-440,022	800,000	-0,044	0,107
-439,007	311,040	-0,061	0,083
-437,992	65,509	-0,050	0,037
-436,978	22,507	-0,038	-0,022
-435,963	20,757	-0,083	0,049
-434,949	-139,315	0,109	-0,008
-433,934	-49,526	-0,142	-0,049
-432,919	8,135	0,094	0,051
-431,905	787,106	0,071	-0,143
-430,890	-200,000	-0,016	0,072
-429,876	-66,931	-0,086	-0,025
-428,861	-4,197	0,072	0,036
-427,846	-200,000	0,028	0,126
-426,832	344,232	-0,018	0,026
-425,817	80,495	-0,066	-0,052
-424,803	-15,257	0,110	-0,051
-423,788	149,884	0,071	-0,070
-422,773	-57,304	0,210	0,067
-421,759	-200,000	0,002	0,041
-420,744	-200,000	-0,006	-0,052
-419,730	77,958	-0,044	-0,034
-418,715	-200,000	-0,003	0,012
-417,701	18,430	-0,157	0,091
-416,686	-102,602	-0,100	0,017
-415,671	800,000	-0,008	-0,023
-414,657	730,402	0,083	0,162
-413,642	65,801	0,099	0,073
-412,628	-29,924	-0,072	-0,030
-411,613	-200,000	0,006	0,027
-410,598	-200,000	0,008	0,089
-409,584	-114,625	-0,063	0,009
-408,569	-200,000	-0,041	0,134
-407,555	128,481	-0,114	0,106
-406,540	251,894	-0,034	-0,042
-405,525	30,855	0,020	-0,012
-404,511	88,882	0,042	-0,034
-403,496	800,000	0,021	-0,044
-402,482	-103,364	-0,129	-0,022
-401,467	71,549	0,064	-0,048
-400,452	123,563	0,138	-0,126
-399,438	555,591	-0,056	0,098
-398,423	178,848	-0,052	0,056
-397,409	800,000	-0,035	0,089
-396,394	168,326	-0,048	0,049
-395,379	-14,713	0,038	-0,018
-394,365	147,812	0,055	-0,054
-393,350	10,389	0,029	0,016
-392,336	327,540	-0,024	0,033
-391,321	-112,263	-0,177	0,026
-390,306	-9,392	0,095	0,046
-389,292	-200,000	-0,008	-0,130
-388,277	239,701	-0,027	-0,033
-387,263	-200,000	0,023	-0,106
-386,248	-16,177	-0,038	-0,017
-385,233	-21,495	0,093	-0,041
-384,219	-78,076	-0,047	0,012
-383,204	-6,765	-0,044	-0,022
-382,190	85,115	0,088	0,070
-381,175	-200,000	0,019	0,074
-380,160	-200,000	-0,005	0,076
-379,146	-200,000	-0,007	-0,027
-378,131	27,344	-0,054	-0,033
-377,117	-200,000	-0,025	0,111
-376,102	0,041	-0,051	-0,026
-375,088	461,970	-0,113	-0,183
-374,073	4,290	0,104	-0,055
-373,058	-200,000	-0,013	0,045
-372,044	-65,505	0,054	0,016
-371,029	794,120	0,022	0,044
-370,015	800,000	0,009	-0,019
-369,000	-200,000	-0,022	-0,093
-367,985	78,106	0,022	-0,017
-366,971	114,862	0,078	-0,069
-365,956	129,989	-0,067	-0,063
-364,942	-60,060	0,143	-0,044
-363,927	-115,335	-0,053	-0,007
-362,912	3,631	0,062	0,033
-361,898	-110,943	-0,111	-0,016
-360,883	185,463	0,035	0,038
-359,869	-200,000	0,013	0,059
-358,854	66,535	-0,026	-0,019
-357,839	6,216	-0,125	0,067
-356,825	-3,152	0,098	-0,050
-355,810	338,628	0,083	0,118
-354,796	-200,000	-0,012	-0,096
-353,781	800,000	0,038	-0,109
-352,766	800,000	0,026	-0,062
-351,752	-78,846	-0,054	-0,013
-350,737	513,585	0,081	0,137
-349,723	31,687	-0,119	-0,074
-348,708	800,000	-0,036	0,093
-347,693	17,441	0,133	-0,076
-346,679	-44,475	0,083	-0,030
-345,664	-90,331	-0,250	0,052
-344,650	175,635	0,080	0,085
-343,635	205,977	-0,090	0,101
-342,620	120,467	0,076	0,068
-341,606	-106,194	0,087	-0,014
-340,591	799,712	-0,040	0,081
-339,577	317,958	-0,099	0,137
-338,562	85,368	0,143	-0,114
-337,548	115,800	0,067	0,059
-336,533	-200,000	0,007	0,061
-335,518	26,704	0,022	0,014
-334,504	165,017	-0,071	0,073
-333,489	-200,000	-0,019	-0,071
-332,475	233,698	0,070	-0,084
-331,460	-200,000	0,008	-0,045
-330,445	-50,566	0,123	0,042
-329,431	-3,205	-0,099	-0,050
-328,416	-23,415	-0,096	-0,042
-327,402	-70,143	-0,082	-0,022
-326,387	-200,000	-0,019	-0,185
-325,372	-43,004	0,009	-0,003
-324,358	800,000	-0,027	0,055
-323,343	75,086	0,053	-0,040
-322,329	-200,000	0,013	-0,080
-321,314	453,483	-0,029	0,047
-320,299	586,544	0,047	0,084
-319,285	-106,992	0,011	0,002
-318,270	-200,000	0,000	-0,009
-317,256	-200,000	-0,009	-0,083
-316,241	-48,636	-0,111	0,039
-315,226	226,344	0,052	0,062
-314,212	-65,752	0,055	-0,016
-313,197	-200,000	0,030	0,127
-312,183	483,249	-0,062	0,102
-311,168	800,000	-0,060	-0,148
-310,153	800,000	-0,026	-0,065
-309,139	-200,000	-0,029	-0,119
-308,124	800,000	-0,034	-0,079
-307,110	124,523	-0,017	-0,016
-306,095	480,705	-0,093	0,154
-305,080	-112,873	-0,075	-0,011
-304,066	54,205	0,047	0,033
-303,051	398,767	0,003	0,004
-302,037	-3,436	-0,108	-0,054
-301,022	411,625	0,023	-0,035
-300,008	107,571	0,024	0,020
-298,993	143,029	0,080	0,077
-297,978	-34,673	0,042	0,017
-296,964	800,000	-0,019	-0,050
-295,949	-200,000	-0,016	-0,064
-294,935	393,934	-0,046	0,070
-293,920	46,728	0,073	0,049
-292,905	-200,000	0,015	-0,107
-291,891	60,676	0,146	0,105
-290,876	-126,510	0,078	0,008
-289,862	182,963	-0,130	-0,139
-288,847	-13,801	-0,125	0,058
-287,832	71,684	0,080	-0,060
-286,818	-180,835	-0,113	0,002
-285,803	-200,000	0,021	0,083
-284,789	-11,347	0,060	0,028
-283,774	108,086	0,104	0,090
-282,759	800,000	-0,019	0,058
-281,745	512,650	-0,020	-0,034
-280,730	-17,993	0,170	-0,077
-279,716	324,750	-0,028	-0,038
-278,701	-200,000	0,020	-0,106
-277,686	327,051	0,023	0,031
-276,672	41,223	-0,066	-0,043
-275,657	-65,977	0,052	0,015
-274,643	110,079	-0,072	-0,063
-273,628	-110,179	0,040	-0,006
-272,613	135,268	0,046	-0,043
-271,599	-200,000	0,013	0,050
-270,584	-25,342	0,110	0,047
-269,570	-95,077	-0,070	0,014
-268,555	-56,432	0,094	-0,030
-267,540	167,116	0,038	-0,039
-266,526	-57,578	0,060	-0,019
-265,511	-139,225	-0,081	0,006
-264,497	-200,000	0,033	-0,241
-263,482	-200,000	0,029	-0,231
-262,467	-43,559	0,124	0,045
-261,453	-43,547	-0,023	0,008
-260,438	-125,222	0,087	-0,010
-259,424	209,744	0,059	-0,068
-258,409	-36,905	0,194	-0,075
-257,395	291,429	-0,064	0,085
-256,380	800,000	-0,022	-0,047
-255,365	223,698	0,082	0,096
-254,351	174,772	-0,041	0,043
-253,336	37,169	-0,119	-0,076
-252,322	255,019	-0,031	0,039
-251,307	268,681	0,041	-0,052
-250,292	-169,581	-0,067	0,002
-249,278	-200,000	-0,003	-0,018
-248,263	-108,937	-0,136	-0,021
-247,249	-200,000	0,014	-0,090
-246,234	46,941	0,070	0,047
-245,219	6,148	-0,039	-0,021
-244,205	-200,000	0,012	-0,162
-243,190	122,609	0,068	0,061
-242,176	-109,957	0,081	0,012
-241,161	-200,000	-0,008	0,073
-240,146	-130,200	0,059	0,006
-239,132	-52,301	0,018	-0,006
-238,117	296,712	-0,060	0,080
-237,103	192,826	-0,063	-0,069
-236,088	-200,000	0,020	0,075
-235,073	-4,920	0,094	0,046
-234,059	-200,000	0,016	0,110
-233,044	-127,875	-0,084	0,009
-232,030	50,886	-0,028	0,019
-231,015	651,979	0,063	-0,117
-230,000	-200,000	0,003	-0,076
-228,986	-17,151	-0,089	0,040
-227,971	41,990	0,144	-0,094
-226,957	-200,000	0,006	0,163
-225,942	-114,334	-0,017	0,002
-224,927	188,614	0,013	0,014
-223,913	-200,000	0,016	0,052
-222,898	-200,000	-0,012	-0,145
-221,884	627,657	-0,050	-0,092
-220,869	-179,652	0,166	0,003
-219,855	800,000	-0,024	0,068
-218,840	800,000	-0,071	0,195
-217,825	180,947	0,084	0,089
-216,811	-200,000	0,011	-0,098
-215,796	-200,000	0,000	-0,063
-214,782	-200,000	-0,019	-0,205
-213,767	-111,951	-0,027	0,004
-212,752	-80,330	-0,051	-0,012
-211,738	-155,856	-0,105	0,005
-210,723	-200,000	0,015	0,055
-209,709	-50,778	-0,143	-0,048
-208,694	14,563	-0,076	-0,042
-207,679	38,090	-0,059	-0,038
-206,665	35,650	-0,162	-0,102
-205,650	-125,809	0,179	-0,019
-204,636	-99,266	-0,104	0,019
-203,621	100,971	-0,127	-0,107
-202,606	800,000	-0,037	0,095
-201,592	-10,090	-0,019	-0,009
-200,577	800,000	0,043	-0,096
-199,563	-35,710	-0,026	0,010
-198,548	-88,546	0,104	0,022
-197,533	-84,341	0,057	-0,013
-196,519	-200,000	0,007	0,061
-195,504	57,954	-0,131	0,092
-194,490	-65,502	-0,132	-0,038
-193,475	-3,532	-0,025	0,012
-192,460	696,150	0,059	0,112
-191,446	-200,000	0,012	0,123
-190,431	-28,412	0,125	-0,052
-189,417	800,000	0,011	-0,029
-188,402	-87,663	0,107	-0,023
-187,387	-200,000	-0,011	-0,088
-186,373	-200,000	0,009	-0,053
-185,358	185,948	-0,049	-0,052
-184,344	-200,000	-0,002	0,075
-183,329	154,753	0,025	-0,024
-182,315	-25,900	0,119	0,050
-181,300	164,946	0,064	-0,065
-180,285	-200,000	0,030	0,131
-179,271	-109,494	0,053	-0,008
-178,256	-179,349	-0,059	0,001
-177,242	-14,176	-0,025	-0,012
-176,227	-88,383	0,127	0,027
-175,212	72,842	0,032	0,024
-174,198	177,361	-0,033	0,034
-173,183	-200,000	0,004	-0,106
-172,169	800,000	-0,030	-0,079
-171,154	666,553	-0,049	0,092
-170,139	-200,000	-0,006	0,038
-169,125	800,000	0,047	0,115
-168,110	97,742	0,132	0,109
-167,096	-44,129	-0,044	-0,016
-166,081	40,972	-0,146	-0,095
-165,066	361,613	-0,025	-0,037
-164,052	800,000	-0,011	-0,024
-163,037	-115,553	0,100	0,013
-162,023	135,990	-0,074	0,069
-161,008	800,000	-0,027	-0,083
-159,993	70,517	0,067	0,050
-158,979	157,797	0,074	-0,074
-157,964	-7,883	0,141	-0,068
-156,950	187,272	-0,066	0,071
-155,935	800,000	0,076	-0,177
-154,920	17,908	-0,077	-0,044
-153,906	31,679	0,123	0,076
-152,891	202,595	0,013	0,015
-151,877	-200,000	-0,009	-0,148
-150,862	696,430	0,004	0,008
-149,847	170,991	0,051	0,053
-148,833	-200,000	-0,022	0,074
-147,818	-87,736	0,101	0,022
-146,804	139,726	0,065	0,062
-145,789	129,316	0,061	0,056
-144,775	213,937	0,039	-0,045
-143,760	613,849	-0,025	0,045
-142,745	-200,000	-0,005	-0,079
-141,731	-200,000	-0,006	-0,071
-140,716	776,720	-0,062	-0,122
-139,702	-200,000	-0,005	0,044
-138,687	-52,752	0,075	-0,025
-137,672	-79,933	-0,102	0,025
-136,658	224,026	-0,095	0,111
-135,643	-166,636	0,076	-0,002
-134,629	-52,019	0,148	0,049
-133,614	800,000	0,035	-0,074
-132,599	49,012	0,113	-0,076
-131,585	-119,495	0,033	0,004
-130,570	-177,585	-0,076	0,001
-129,556	-200,000	-0,013	0,063
-128,541	-200,000	-0,017	-0,118
-127,526	232,716	-0,008	-0,010
-126,512	606,862	0,047	0,084
-125,497	-200,000	0,010	0,074
-124,483	101,626	-0,064	-0,054
-123,468	-23,727	-0,120	0,051
-122,453	800,000	-0,026	-0,072
-121,439	-153,601	-0,209	0,010
-120,424	245,614	0,099	-0,120
-119,410	544,373	0,003	0,006
-118,395	-88,688	-0,170	0,036
-117,380	306,922	-0,056	0,076
-116,366	79,307	0,087	0,067
-115,351	372,930	-0,077	-0,113
-114,337	-152,083	-0,128	0,007
-113,322	581,230	0,035	0,062
-112,307	21,425	0,259	0,151
-111,293	37,161	0,103	0,065
-110,278	-60,319	-0,065	-0,020
-109,264	-200,000	-0,033	-0,158
-108,249	800,000	-0,025	-0,058
-107,234	-200,000	0,015	-0,079
-106,220	655,084	-0,016	-0,029
-105,205	296,218	-0,074	-0,097
-104,191	-134,807	0,006	-0,001
-103,176	-73,087	0,069	0,018
-102,162	800,000	-0,021	-0,061
-101,147	22,022	-0,041	0,024
-100,132	56,584	-0,086	-0,060
-99,118	-200,000	0,011	-0,078
-98,103	485,658	-0,023	0,038
-97,089	166,685	0,118	-0,121
-96,074	-24,399	0,171	0,073
-95,059	-200,000	-0,024	-0,120
-94,045	-200,000	-0,025	0,084
-93,030	446,728	0,031	0,048
-92,016	-4,069	0,098	-0,049
-91,001	178,389	-0,074	0,078
-89,986	-13,262	0,119	-0,055
-88,972	262,153	0,093	0,116
-87,957	-117,762	-0,085	-0,011
-86,943	-200,000	0,008	0,038
-85,928	-200,000	0,022	-0,139
-84,913	-200,000	-0,005	0,053
-83,899	-200,000	-0,000	0,118
-82,884	-77,703	-0,010	0,002
-81,870	188,139	0,145	0,156
-80,855	800,000	0,041	0,094
-79,840	639,640	0,054	0,099
-78,826	15,341	-0,050	-0,028
-77,811	-200,000	0,000	-0,014
-76,797	331,256	-0,106	-0,147
-75,782	-61,595	-0,097	-0,029
-74,767	98,527	0,065	0,054
-73,753	-37,040	0,063	-0,024
-72,738	-30,636	0,023	-0,009
-71,724	-200,000	-0,004	-0,099
-70,709	-15,191	-0,119	0,054
-69,694	800,000	0,036	-0,091
-68,680	287,035	0,039	0,050
-67,665	9,169	-0,113	0,061
-66,651	182,052	0,031	-0,033
-65,636	-57,542	-0,113	0,035
-64,622	109,634	0,096	-0,082
-63,607	9,799	-0,060	-0,033
-62,592	276,137	-0,062	-0,079
-61,578	-125,001	-0,069	-0,008
-60,563	-51,713	-0,112	0,037
-59,549	-111,875	0,115	-0,017
-58,534	14,694	-2,210	-1,236
-57,519	-200,000	-0,207	-0,760
-56,505	-200,000	-1,447	-5,089
-55,490	138,795	0,898	0,847
-54,476	800,000	5,285	12,011
-53,461	-200,000	19,104	325,656
-52,446	800,000	745,603	2339,301
-51,432	552,871	1659,049	2870,955
-50,417	113,447	1640,987	1428,673
-49,403	79,032	1290,960	990,658
-48,388	30,738	1031,549	631,911
-47,373	19,761	994,714	572,944
-46,359	16,886	982,272	556,277
-45,344	13,459	978,955	543,083
-44,330	13,838	977,212	543,343
-43,315	13,140	975,300	539,963
-42,300	13,116	973,975	539,132
-41,286	13,147	973,079	538,717
-40,271	13,174	972,255	538,326
-39,257	13,119	971,315	537,604
-38,242	13,086	970,421	536,981
-37,227	13,117	969,634	536,625
-36,213	13,144	968,523	536,076
-35,198	13,019	967,883	535,292
-34,184	13,148	966,976	535,191
-33,169	13,074	966,082	534,434
-32,154	13,111	965,126	534,004
-31,140	13,073	964,267	533,384
-30,125	13,146	963,515	533,186
-29,111	13,089	962,732	532,543
-28,096	13,109	962,138	532,260
-27,082	13,164	961,246	531,922
-26,067	13,135	960,542	531,419
-25,052	13,101	959,721	530,835
-24,038	13,153	958,982	530,571
-23,023	13,068	958,590	530,061
-22,009	13,188	957,740	529,956
-20,994	13,132	957,283	529,501
-19,979	13,165	956,558	529,186
-18,965	13,166	955,898	528,802
-17,950	13,136	955,424	528,423
-16,936	13,114	954,771	527,970
-15,921	13,097	954,127	527,536
-14,906	13,084	953,157	526,938
-13,892	13,010	952,590	526,367
-12,877	13,058	952,094	526,226
-11,863	12,951	951,455	525,509
-10,848	12,992	950,871	525,296
-9,833	13,154	950,376	525,520
-8,819	13,108	949,576	524,910
-7,804	13,039	948,940	524,317
-6,790	12,951	948,591	523,824
-5,775	13,033	947,830	523,643
-4,760	13,097	947,170	523,463
-3,746	13,048	946,705	523,029
-2,731	12,884	946,131	522,168
-1,717	12,789	945,298	521,386
-0,702	12,870	944,534	521,202
0,313	12,672	943,945	521,034
1,327	16,054	941,583	530,407
2,342	24,881	794,979	471,270
3,356	20,665	458,641	265,405
4,371	-7,093	316,527	153,400
5,386	-10,995	298,364	140,604
6,400	-13,091	292,210	135,593
7,415	-13,052	289,789	134,497
8,429	-13,271	288,413	133,630
9,444	-13,388	287,382	133,026
10,459	-13,106	286,764	133,005
11,473	-13,320	286,200	132,521
12,488	-13,371	285,685	132,221
13,502	-13,309	285,102	132,001
14,517	-12,907	284,666	132,178
15,531	-12,843	284,535	132,168
16,546	-12,548	283,997	132,193
17,561	-12,698	283,773	131,931
18,575	-12,512	283,348	131,902
19,590	-12,556	283,035	131,702
20,604	-12,484	282,718	131,612
21,619	-12,561	282,419	131,387
22,634	-12,495	282,096	131,289
23,648	-12,657	281,689	130,931
24,663	-12,599	281,410	130,846
25,677	-12,467	281,011	130,776
26,692	-12,568	280,963	130,645
27,707	-12,565	280,495	130,418
28,721	-12,443	280,456	130,506
29,736	-12,521	280,038	130,225
30,750	-12,688	279,772	129,930
31,765	-12,616	279,551	129,884
32,780	-12,444	279,286	129,914
33,794	-12,572	279,024	129,659
34,809	-12,626	278,748	129,467
35,823	-12,565	278,466	129,383
36,838	-12,583	278,204	129,232
37,853	-12,737	278,100	129,026
38,867	-12,591	277,764	128,997
39,882	-12,708	277,675	128,833
40,896	-12,863	277,449	128,570
41,911	-12,730	277,199	128,569
42,926	-12,475	276,785	128,607
43,940	-12,654	276,534	128,309
44,955	-12,683	276,285	128,155
45,969	-12,645	276,142	128,113
46,984	-12,645	275,921	127,999
47,999	-12,748	275,743	127,808
49,013	-12,721	275,541	127,729
50,028	-12,686	275,279	127,629
51,042	-12,839	274,929	127,311
52,057	-12,568	274,625	127,413
53,071	-12,588	274,465	127,308
54,086	-12,726	274,257	127,072
55,101	-12,769	274,012	126,906
56,115	-12,821	273,881	126,786
57,130	-12,681	273,617	126,783
58,144	-12,703	273,278	126,594
59,159	-12,653	273,117	126,555
60,174	-12,770	273,057	126,407
61,188	-12,724	272,657	126,253
62,203	-12,661	272,385	126,175
63,217	-12,685	272,282	126,093
64,232	-12,477	271,950	126,121
65,247	-12,813	271,716	125,690
66,261	-12,679	271,568	125,735
67,276	-12,814	271,366	125,505
68,290	-12,824	271,084	125,355
69,305	-12,806	270,925	125,286
70,320	-12,658	270,601	125,262
71,334	-12,600	270,437	125,228
72,349	-12,545	270,147	125,133
73,363	-12,764	269,999	124,852
74,378	-12,723	269,693	124,737
75,393	-12,671	269,450	124,661
76,407	-12,717	269,339	124,556
77,422	-12,592	268,981	124,494
78,436	-12,785	268,837	124,240
79,451	-12,618	268,532	124,241
80,466	-12,684	268,353	124,086
81,480	-12,562	268,082	124,061
82,495	-12,645	267,944	123,910
83,509	-12,637	267,848	123,863
84,524	-12,934	267,603	123,468
85,539	-12,665	267,332	123,577
86,553	-12,606	267,095	123,509
87,568	-12,713	266,959	123,338
88,582	-12,618	266,670	123,280
89,597	-12,772	266,449	123,027
90,611	-12,676	266,321	123,045
91,626	-12,664	266,202	122,989
92,641	-12,810	265,945	122,727
93,655	-12,531	265,612	122,815
94,670	-12,733	265,509	122,574
95,684	-12,690	265,299	122,505
96,699	-12,634	264,974	122,395
97,714	-12,697	264,798	122,246
98,728	-12,821	264,755	122,103
99,743	-12,579	264,524	122,203
100,757	-12,662	264,225	121,979
101,772	-12,871	264,106	121,726
102,787	-12,575	263,658	121,774
103,801	-12,716	263,604	121,613
104,816	-12,738	263,520	121,542
105,830	-12,791	263,357	121,409
106,845	-12,839	263,090	121,232
107,860	-12,895	262,837	121,055
108,874	-13,017	262,710	120,877
109,889	-12,863	262,228	120,782
110,903	-12,767	262,037	120,769
111,918	-12,667	261,848	120,759
112,933	-12,625	261,732	120,732
113,947	-12,663	261,706	120,676
114,962	-12,825	261,421	120,390
115,976	-12,714	261,164	120,359
116,991	-12,806	261,013	120,198
118,006	-12,794	260,933	120,160
119,020	-12,898	260,796	119,994
120,035	-12,624	260,500	120,089
121,049	-12,747	260,454	119,949
122,064	-12,597	260,086	119,901
123,079	-12,763	259,878	119,648
124,093	-12,840	259,768	119,519
125,108	-12,768	259,447	119,425
126,122	-12,567	259,315	119,530
127,137	-12,660	259,102	119,339
128,151	-12,908	259,081	119,101
129,166	-12,759	258,619	119,009
130,181	-12,724	258,596	119,018
131,195	-12,731	258,279	118,855
132,210	-12,706	258,160	118,812
133,224	-12,920	257,974	118,529
134,239	-12,759	257,773	118,566
135,254	-12,851	257,577	118,385
136,268	-12,660	257,258	118,395
137,283	-12,755	257,126	118,241
138,297	-12,809	256,932	118,094
139,312	-12,821	256,759	117,993
140,327	-12,716	256,635	118,017
141,341	-12,566	256,367	118,013
142,356	-12,785	256,046	117,665
143,370	-12,667	255,940	117,709
144,385	-12,561	255,739	117,698
145,400	-12,606	255,602	117,585
146,414	-12,599	255,335	117,457
147,429	-12,574	255,152	117,384
148,443	-12,496	255,051	117,395
149,458	-12,598	254,952	117,251
150,473	-12,573	254,812	117,198
151,487	-12,903	254,453	116,738
152,502	-12,559	254,253	116,932
153,516	-12,623	254,169	116,827
154,531	-12,549	253,936	116,774
155,546	-12,682	253,585	116,487
156,560	-12,665	253,590	116,494
157,575	-12,742	253,230	116,252
158,589	-12,785	253,062	116,128
159,604	-12,574	252,900	116,224
160,619	-12,532	252,824	116,214
161,633	-12,552	252,804	116,178
162,648	-12,343	252,550	116,229
163,662	-12,546	252,270	115,917
164,677	-12,658	252,102	115,734
165,692	-12,475	251,889	115,781
166,706	-12,499	251,817	115,717
167,721	-12,445	251,552	115,631
168,735	-12,561	251,454	115,478
169,750	-12,578	251,274	115,370
170,764	-12,567	251,130	115,303
171,779	-12,563	250,953	115,215
172,794	-12,664	250,841	115,068
173,808	-12,663	250,485	114,895
174,823	-12,691	250,424	114,833
175,837	-12,726	250,298	114,735
176,852	-12,896	250,154	114,516
177,867	-12,511	249,791	114,664
178,881	-12,643	249,784	114,539
179,896	-12,370	249,550	114,651
180,910	-12,614	249,348	114,343
181,925	-12,585	249,147	114,265
182,940	-12,583	248,932	114,158
183,954	-12,770	249,014	114,028
184,969	-12,520	248,668	114,069
185,983	-12,484	248,693	114,101
186,998	-12,574	248,347	113,857
188,013	-12,575	248,243	113,798
189,027	-12,608	247,917	113,611
190,042	-12,730	247,752	113,424
191,056	-12,733	247,655	113,366
192,071	-12,855	247,439	113,155
193,086	-13,081	247,270	112,880
194,100	-12,845	247,159	113,016
195,115	-12,663	246,907	113,042
196,129	-12,981	246,758	112,699
197,144	-12,686	246,418	112,779
198,159	-12,790	246,341	112,647
199,173	-12,749	245,994	112,512
200,188	-13,086	245,730	112,103
201,202	-13,221	245,640	111,940
202,217	-12,908	245,587	112,164
203,232	-12,752	245,265	112,137
204,246	-13,251	245,192	111,681
205,261	-14,062	244,466	110,673
206,275	-13,924	244,707	110,886
207,290	-9,654	246,057	115,022
208,304	-2,805	248,320	121,776
209,319	1,172	249,654	125,740
210,334	2,514	249,791	126,918
211,348	2,950	249,820	127,284
212,363	3,316	249,740	127,537
213,377	3,524	249,747	127,703
214,392	3,928	249,619	127,962
215,407	3,904	249,442	127,840
216,421	4,047	249,212	127,830
217,436	3,940	249,143	127,694
218,450	4,048	248,935	127,665
219,465	3,913	248,738	127,441
220,480	3,669	248,530	127,121
221,494	3,674	248,256	126,974
222,509	3,396	247,944	126,574
223,523	2,969	247,786	126,129
224,538	2,770	247,480	125,797
225,553	2,634	247,361	125,614
226,567	2,659	247,139	125,511
227,582	2,566	246,974	125,339
228,596	2,443	246,909	125,194
229,611	2,550	246,736	125,183
230,626	2,570	246,489	125,063
231,640	2,506	246,408	124,958
232,655	2,544	246,073	124,809
233,669	2,492	245,987	124,711
234,684	2,711	245,791	124,780
235,699	2,721	245,736	124,748
236,713	2,790	245,599	124,724
237,728	2,764	245,440	124,611
238,742	2,718	245,351	124,517
239,757	2,526	245,120	124,233
240,772	2,773	244,769	124,245
241,786	2,599	244,730	124,073
242,801	2,491	244,499	123,856
243,815	2,668	244,313	123,895
244,830	2,641	244,195	123,802
245,844	2,601	244,037	123,678
246,859	2,572	243,911	123,580
247,874	2,776	243,706	123,630
248,888	2,597	243,791	123,517
249,903	2,471	243,555	123,284
250,917	2,664	243,501	123,402
251,932	2,941	243,231	123,479
252,947	2,866	243,111	123,346
253,961	2,693	242,930	123,103
254,976	2,646	242,783	122,980
255,990	2,698	242,686	122,962
257,005	2,769	242,400	122,863
258,020	2,734	242,356	122,802
259,034	2,654	242,085	122,589
260,049	2,539	242,056	122,471
261,063	2,623	241,870	122,434
262,078	2,684	241,618	122,344
263,093	2,465	241,525	122,110
264,107	2,723	241,337	122,211
265,122	2,872	241,068	122,184
266,136	2,859	240,994	122,125
267,151	2,633	240,890	121,881
268,166	2,639	240,573	121,714
269,180	2,279	240,547	121,402
270,195	2,787	240,390	121,718
271,209	2,677	240,363	121,606
272,224	2,730	239,948	121,427
273,239	2,655	239,898	121,331
274,253	2,729	239,677	121,267
275,268	2,713	239,624	121,217
276,282	2,488	239,446	120,937
277,297	2,640	239,077	120,861
278,312	2,843	239,036	120,990
279,326	2,774	238,915	120,863
280,341	2,571	238,849	120,658
281,355	2,873	238,655	120,789
282,370	2,841	238,564	120,707
283,384	2,792	238,311	120,529
284,399	2,581	238,178	120,284
285,414	2,354	238,137	120,073
286,428	2,510	237,935	120,084
287,443	2,628	237,855	120,127
288,457	2,683	237,578	120,019
289,472	2,718	237,434	119,963
290,487	2,704	237,333	119,890
291,501	2,732	237,083	119,775
292,516	2,630	236,871	119,577
293,530	2,641	236,872	119,576
294,545	2,776	236,691	119,579
295,560	2,733	236,554	119,466
296,574	2,941	236,337	119,509
297,589	2,737	236,261	119,300
298,603	2,745	236,189	119,260
299,618	2,702	236,054	119,147
300,633	2,866	235,836	119,154
301,647	2,779	235,694	119,004
302,662	2,762	235,638	118,952
303,676	2,915	235,349	118,914
304,691	2,861	235,267	118,821
305,706	2,925	235,074	118,763
306,720	3,000	234,904	118,724
307,735	2,916	234,719	118,555
308,749	2,634	234,707	118,319
309,764	2,825	234,305	118,254
310,779	2,610	234,210	118,029
311,793	2,649	234,045	117,965
312,808	2,548	234,019	117,863
313,822	2,752	233,893	117,947
314,837	2,924	233,768	118,007
315,852	2,900	233,598	117,892
316,866	2,735	233,363	117,636
317,881	3,028	233,273	117,805
318,895	2,888	233,127	117,613
319,910	2,912	232,821	117,466
320,925	2,754	232,735	117,291
321,939	2,781	232,645	117,256
322,954	2,480	232,596	116,990
323,968	2,591	232,378	116,956
324,983	2,811	232,285	117,067
325,997	2,738	232,075	116,894
327,012	2,679	231,872	116,737
328,027	2,767	231,812	116,763
329,041	2,856	231,584	116,706
330,056	2,927	231,591	116,754
331,070	2,935	231,282	116,594
332,085	3,082	231,044	116,575
333,100	2,735	230,982	116,269
334,114	2,622	230,884	116,123
335,129	2,792	230,678	116,138
336,143	2,840	230,628	116,140
337,158	3,012	230,408	116,150
338,173	2,902	230,236	115,968
339,187	2,965	230,152	115,964
340,202	2,838	229,970	115,765
341,216	2,981	229,734	115,745
342,231	2,845	229,711	115,620
343,246	2,728	229,453	115,391
344,260	2,926	229,326	115,467
345,275	2,824	229,309	115,371
346,289	2,842	229,047	115,242
347,304	3,037	228,974	115,343
348,319	2,652	228,819	114,964
349,333	2,892	228,624	115,037
350,348	2,856	228,447	114,910
351,362	2,812	228,382	114,834
352,377	2,711	228,241	114,676
353,392	2,772	228,017	114,600
354,406	2,702	227,892	114,475
355,421	194,426	1316,490	1388,712
356,435	155,887	1449,066	1388,655
