DTS Sentinel unit serial number:	SN410029Multiplexer serial number:	ORYXHardware model number:	OX2-SRSoftware version number:	ORYX F/W v4,00 Oryx Data Collector v3.7.2.0data status	okinstallation	B5 Nyhavnadifferential loss correction	single-endedforward channel	channel 2reverse channel	N/Adate	2023/12/12time	23:42:13forward acquisition time	300,00reverse acquisition time	0,00gamma	499,1914k internal	0,3159k external	0,3159temperature offset calibration	1,0000default loss term (dB/km)	0,3820temperature slope calibration	1,0000multiplexer offset coefficient	1,0000multiplexer slope coefficient	1,0000fibre end	0,00T internal ref (°C)	14,41T ext. ref 1 (°C)	-2,15T ext. ref 2 (°C)	-2,47length (m)	temperature (°C)	Stokes	anti-Stokes-744,400	-66,444	0,179	0,052
-743,385	-55,231	-0,258	0,085
-742,371	-43,883	0,109	0,040
-741,356	-52,805	-0,281	-0,095
-740,342	-122,050	0,156	-0,019
-739,327	-123,670	-0,339	-0,039
-738,312	9,358	0,100	-0,055
-737,298	-157,384	-0,298	-0,013
-736,283	-88,448	0,055	-0,012
-735,269	-4,445	-0,196	0,100
-734,254	-158,066	0,086	0,004
-733,239	-94,678	-0,530	-0,105
-732,225	-117,828	0,201	0,026
-731,210	800,000	0,025	0,054
-730,196	800,000	-0,044	-0,111
-729,181	800,000	-0,006	-0,015
-728,167	612,100	-0,037	0,069
-727,152	800,000	0,037	-0,076
-726,137	-200,000	-0,017	-0,067
-725,123	683,299	-0,065	-0,125
-724,108	161,044	-0,034	-0,035
-723,094	108,191	-0,120	0,105
-722,079	-79,232	-0,126	-0,031
-721,064	-200,000	-0,016	0,065
-720,050	-89,063	0,109	-0,024
-719,035	-140,671	-0,073	0,005
-718,021	800,000	-0,009	0,020
-717,006	-200,000	0,015	-0,104
-715,991	-103,035	0,044	0,008
-714,977	75,858	-0,196	0,153
-713,962	-135,340	0,089	0,008
-712,948	230,114	-0,080	0,097
-711,933	-13,446	-0,093	0,044
-710,918	-192,624	-0,142	0,001
-709,904	800,000	-0,082	-0,223
-708,889	-200,000	-0,033	-0,204
-707,875	542,440	0,065	0,115
-706,860	-100,893	0,026	0,005
-705,845	598,786	-0,083	0,153
-704,831	-200,000	-0,009	0,104
-703,816	271,890	-0,074	-0,096
-702,802	-200,000	0,000	-0,079
-701,787	157,310	-0,025	-0,025
-700,772	37,527	-0,132	-0,086
-699,758	-130,395	0,087	0,009
-698,743	-31,900	0,041	-0,017
-697,729	36,284	0,096	0,062
-696,714	-123,065	-0,105	0,012
-695,699	-59,331	0,136	-0,043
-694,685	-200,000	0,017	0,063
-693,670	-47,770	0,123	0,043
-692,656	-200,000	0,010	-0,039
-691,641	-200,000	-0,013	-0,056
-690,627	-200,000	0,016	-0,064
-689,612	283,219	-0,046	-0,061
-688,597	401,279	-0,055	0,085
-687,583	-95,637	-0,215	-0,042
-686,568	-76,873	-0,049	-0,012
-685,554	327,165	-0,046	-0,065
-684,539	-52,497	0,022	0,007
-683,524	7,904	0,126	-0,069
-682,510	29,669	0,079	-0,049
-681,495	426,955	0,053	-0,085
-680,481	735,110	-0,051	0,100
-679,466	135,643	-0,075	-0,072
-678,451	648,831	0,052	-0,099
-677,437	-200,000	0,024	-0,098
-676,422	279,825	-0,082	-0,108
-675,408	74,437	-0,155	-0,120
-674,393	417,718	0,053	0,084
-673,378	110,375	0,080	0,070
-672,364	-21,635	-0,077	0,035
-671,349	143,137	0,041	0,040
-670,335	-134,668	0,113	0,010
-669,320	-200,000	-0,007	0,027
-668,305	108,965	-0,076	0,067
-667,291	656,597	-0,092	0,174
-666,276	86,127	0,033	-0,026
-665,262	800,000	0,068	-0,156
-664,247	-49,249	0,020	0,007
-663,232	56,919	-0,044	-0,031
-662,218	517,748	-0,096	0,165
-661,203	-200,000	0,006	-0,032
-660,189	20,349	-0,043	-0,026
-659,174	-111,918	-0,146	-0,021
-658,159	82,684	-0,017	0,014
-657,145	44,142	-0,017	0,012
-656,130	-89,675	0,230	-0,049
-655,116	-98,363	0,197	-0,037
-654,101	-200,000	-0,019	-0,119
-653,086	81,289	-0,025	0,020
-652,072	-33,078	0,041	-0,017
-651,057	268,417	-0,023	0,030
-650,043	-14,550	-0,106	-0,050
-649,028	33,137	-0,066	0,042
-648,014	-118,075	0,116	0,015
-646,999	424,381	0,105	-0,167
-645,984	132,440	-0,035	0,033
-644,970	114,978	-0,062	-0,055
-643,955	-200,000	-0,010	-0,180
-642,941	-200,000	0,002	-0,188
-641,926	-200,000	-0,008	-0,047
-640,911	800,000	0,049	-0,103
-639,897	-26,752	-0,029	-0,012
-638,882	5,410	-0,075	0,041
-637,868	233,145	-0,041	0,050
-636,853	123,880	0,061	-0,056
-635,838	654,021	-0,046	0,087
-634,824	-120,233	0,127	-0,016
-633,809	644,338	0,058	-0,109
-632,795	800,000	0,016	0,048
-631,780	570,074	0,049	0,088
-630,765	-200,000	0,003	-0,099
-629,751	67,718	0,137	0,103
-628,736	-200,000	0,008	-0,032
-627,722	-162,821	-0,187	0,007
-626,707	-26,304	-0,131	-0,056
-625,692	-80,845	0,056	0,014
-624,678	131,866	0,086	0,081
-623,663	-200,000	0,047	0,153
-622,649	800,000	0,045	0,111
-621,634	-200,000	-0,031	-0,156
-620,619	-200,000	-0,052	-0,225
-619,605	800,000	0,021	-0,067
-618,590	124,597	-0,099	-0,092
-617,576	4,994	-0,050	0,027
-616,561	-200,000	-0,009	0,096
-615,546	-57,531	0,027	0,009
-614,532	-200,000	0,007	0,040
-613,517	-138,441	-0,048	-0,004
-612,503	-200,000	-0,013	0,074
-611,488	506,112	0,044	0,075
-610,474	32,164	-0,053	-0,033
-609,459	-200,000	0,016	0,125
-608,444	23,639	-0,104	-0,063
-607,430	10,251	-0,124	-0,069
-606,415	800,000	-0,024	-0,072
-605,401	-33,242	0,053	0,022
-604,386	-193,261	0,158	-0,001
-603,371	129,766	0,060	-0,057
-602,357	800,000	-0,041	0,101
-601,342	-200,000	-0,011	-0,192
-600,328	-110,453	-0,106	-0,016
-599,313	706,908	0,006	-0,011
-598,298	-200,000	-0,002	-0,055
-597,284	800,000	0,027	0,072
-596,269	-200,000	-0,018	0,129
-595,255	-140,834	-0,015	-0,001
-594,240	-79,212	0,085	-0,021
-593,225	750,163	-0,018	-0,037
-592,211	6,672	-0,037	0,020
-591,196	194,637	-0,075	-0,084
-590,182	-168,721	0,186	0,005
-589,167	-137,015	-0,051	0,004
-588,152	419,066	-0,075	-0,118
-587,138	100,524	-0,112	-0,095
-586,123	336,515	-0,074	-0,106
-585,109	-78,278	-0,079	0,020
-584,094	-200,000	0,018	-0,089
-583,079	-200,000	-0,001	0,246
-582,065	80,013	-0,085	0,067
-581,050	-119,709	-0,099	-0,012
-580,036	258,120	0,081	0,102
-579,021	-46,751	-0,120	0,043
-578,006	-53,147	-0,057	-0,019
-576,992	21,341	-0,154	0,092
-575,977	175,155	0,073	-0,078
-574,963	-44,688	0,082	-0,030
-573,948	800,000	-0,006	0,018
-572,934	-25,898	-0,039	-0,017
-571,919	-91,674	-0,080	-0,016
-570,904	153,283	0,021	0,021
-569,890	102,310	-0,179	-0,153
-568,875	-12,971	0,124	-0,059
-567,861	-93,160	0,060	0,012
-566,846	-89,986	-0,113	0,024
-565,831	-149,000	-0,048	0,003
-564,817	570,267	0,091	0,162
-563,802	-54,794	-0,107	0,035
-562,788	188,186	-0,088	-0,096
-561,773	193,920	-0,058	0,064
-560,758	-200,000	0,027	0,092
-559,744	-200,000	0,031	0,100
-558,729	-200,000	-0,003	0,024
-557,715	106,086	0,095	-0,083
-556,700	-200,000	0,016	-0,077
-555,685	500,018	-0,113	-0,191
-554,671	-128,235	-0,083	0,009
-553,656	606,968	0,061	-0,112
-552,642	420,418	0,081	-0,128
-551,627	682,320	-0,034	0,066
-550,612	77,499	-0,029	0,023
-549,598	-75,538	-0,074	0,019
-548,583	-88,943	0,100	0,022
-547,569	36,360	-0,033	-0,021
-546,554	-86,078	0,087	0,019
-545,539	-200,000	-0,002	0,112
-544,525	-61,792	-0,087	-0,026
-543,510	138,049	-0,084	0,081
-542,496	-17,866	-0,203	-0,093
-541,481	-200,000	-0,011	-0,125
-540,466	800,000	0,040	0,118
-539,452	-64,494	0,119	0,035
-538,437	-145,712	-0,106	-0,007
-537,423	275,957	0,080	0,105
-536,408	800,000	-0,023	-0,058
-535,393	479,058	-0,088	-0,147
-534,379	677,494	-0,098	-0,187
-533,364	149,049	0,034	0,034
-532,350	-41,141	-0,081	-0,030
-531,335	-200,000	-0,001	0,114
-530,321	800,000	0,025	-0,061
-529,306	2,304	0,031	0,016
-528,291	63,068	-0,066	-0,048
-527,277	277,097	-0,097	-0,126
-526,262	-200,000	0,017	0,078
-525,248	256,424	0,033	0,041
-524,233	800,000	0,043	0,099
-523,218	800,000	0,019	0,061
-522,204	-200,000	0,014	0,062
-521,189	306,930	0,037	0,050
-520,175	16,460	-0,073	0,042
-519,160	194,991	-0,084	0,093
-518,145	286,618	0,025	0,033
-517,131	483,002	-0,060	0,099
-516,116	-200,000	0,011	0,064
-515,102	92,482	-0,120	0,099
-514,087	45,856	-0,043	0,029
-513,072	266,232	-0,020	-0,025
-512,058	789,559	0,047	-0,094
-511,043	-73,153	0,072	0,019
-510,029	223,017	0,049	-0,058
-509,014	-200,000	-0,002	-0,038
-507,999	-200,000	-0,015	0,072
-506,985	800,000	-0,029	-0,093
-505,970	525,133	-0,058	-0,101
-504,956	800,000	-0,064	-0,156
-503,941	-200,000	0,000	-0,003
-502,926	800,000	-0,030	-0,077
-501,912	423,531	0,024	0,037
-500,897	-200,000	0,007	0,094
-499,883	732,603	-0,011	0,022
-498,868	2,262	-0,098	-0,052
-497,853	800,000	0,045	-0,101
-496,839	-73,718	-0,046	0,012
-495,824	235,514	0,075	0,090
-494,810	-40,438	0,053	-0,020
-493,795	-200,000	0,001	-0,028
-492,781	-167,819	-0,043	-0,001
-491,766	129,484	0,038	-0,036
-490,751	73,147	-0,090	-0,069
-489,737	305,119	0,058	-0,079
-488,722	-134,275	0,114	0,010
-487,708	206,491	0,038	-0,043
-486,693	-193,184	-0,015	0,000
-485,678	696,967	-0,074	0,143
-484,664	538,475	-0,046	-0,080
-483,649	-200,000	-0,009	-0,080
-482,635	-200,000	0,009	0,110
-481,620	-73,660	0,084	-0,022
-480,605	-5,780	0,115	0,057
-479,591	-200,000	0,010	-0,069
-478,576	-138,926	-0,119	-0,009
-477,562	62,335	0,066	-0,048
-476,547	-200,000	0,005	0,035
-475,532	378,901	0,050	0,075
-474,518	-57,411	0,117	0,037
-473,503	-41,922	-0,050	-0,018
-472,489	-200,000	-0,010	0,165
-471,474	92,760	0,079	-0,065
-470,459	800,000	-0,092	-0,211
-469,445	-200,000	-0,009	-0,226
-468,430	368,449	-0,040	0,059
-467,416	71,289	0,148	0,112
-466,401	-124,681	0,117	0,013
-465,386	146,944	-0,014	-0,014
-464,372	2,796	0,094	0,050
-463,357	-99,838	-0,052	0,009
-462,343	-165,242	-0,102	0,003
-461,328	-124,179	-0,121	0,014
-460,313	-200,000	0,032	0,114
-459,299	-200,000	-0,014	-0,069
-458,284	-200,000	0,026	0,181
-457,270	191,562	-0,066	-0,072
-456,255	-83,983	0,080	0,018
-455,241	35,867	-0,049	-0,031
-454,226	384,593	-0,057	-0,087
-453,211	246,408	-0,055	0,067
-452,197	4,102	0,035	0,019
-451,182	14,301	-0,201	0,114
-450,168	-51,931	0,045	0,015
-449,153	-107,700	-0,066	-0,010
-448,138	-200,000	-0,011	-0,096
-447,124	-200,000	0,009	-0,042
-446,109	239,539	-0,081	0,099
-445,095	-31,526	0,204	0,083
-444,080	800,000	-0,036	0,081
-443,065	-200,000	-0,001	-0,032
-442,051	186,353	-0,023	-0,025
-441,036	-200,000	0,012	0,114
-440,022	-102,016	-0,084	0,015
-439,007	-26,526	0,032	0,014
-437,992	800,000	0,028	-0,074
-436,978	642,283	0,035	0,066
-435,963	-65,506	0,064	-0,018
-434,949	106,441	-0,089	0,077
-433,934	800,000	0,036	0,095
-432,919	600,304	-0,082	-0,148
-431,905	-200,000	0,007	0,026
-430,890	-200,000	-0,001	0,022
-429,876	-200,000	-0,042	0,146
-428,861	-101,972	0,119	-0,021
-427,846	-106,264	0,031	0,005
-426,832	-75,642	-0,062	-0,016
-425,817	440,213	0,088	-0,140
-424,803	-200,000	0,002	-0,105
-423,788	216,593	0,101	-0,118
-422,773	-200,000	-0,013	0,104
-421,759	-200,000	0,037	0,176
-420,744	-23,393	-0,043	0,019
-419,730	-200,000	0,012	0,074
-418,715	-46,190	-0,131	-0,047
-417,701	312,776	0,015	0,021
-416,686	-50,914	0,043	-0,015
-415,671	-200,000	-0,027	-0,107
-414,657	140,997	0,054	-0,052
-413,642	112,568	-0,092	-0,081
-412,628	-200,000	0,002	-0,181
-411,613	261,005	0,057	0,072
-410,598	46,353	0,036	-0,024
-409,584	-200,000	0,010	-0,168
-408,569	-35,117	0,030	-0,012
-407,555	16,868	-0,039	0,022
-406,540	198,512	-0,094	0,105
-405,525	-200,000	0,038	0,136
-404,511	-200,000	-0,014	0,070
-403,496	-88,273	-0,078	0,017
-402,482	-84,977	0,041	-0,009
-401,467	64,254	-0,031	0,022
-400,452	-128,264	0,050	-0,005
-399,438	269,035	-0,054	0,069
-398,423	800,000	0,017	0,047
-397,409	800,000	-0,065	-0,147
-396,394	-81,304	0,038	-0,009
-395,379	800,000	0,074	0,166
-394,365	-54,044	0,091	0,030
-393,350	115,379	0,086	-0,076
-392,336	-68,604	-0,084	0,023
-391,321	-94,000	0,050	0,010
-390,306	-46,230	-0,073	0,026
-389,292	33,741	-0,028	0,018
-388,277	800,000	0,072	0,196
-387,263	587,853	0,049	0,088
-386,248	800,000	-0,012	0,026
-385,233	-55,512	0,093	0,030
-384,219	66,544	-0,079	0,058
-383,204	219,296	-0,015	-0,018
-382,190	-200,000	-0,016	-0,098
-381,175	186,905	0,086	0,093
-380,160	477,026	0,066	0,108
-379,146	-200,000	-0,002	-0,008
-378,131	206,510	0,023	0,026
-377,117	-79,161	-0,078	-0,019
-376,102	-98,640	-0,053	0,010
-375,088	-200,000	-0,007	0,037
-374,073	93,187	-0,099	-0,081
-373,058	-136,614	-0,094	-0,008
-372,044	-200,000	0,017	0,085
-371,029	800,000	0,006	-0,015
-370,015	46,413	0,072	0,048
-369,000	-63,363	-0,092	0,027
-367,985	800,000	-0,039	-0,117
-366,971	-200,000	-0,007	-0,027
-365,956	-162,946	-0,143	0,005
-364,942	22,932	-0,037	0,022
-363,927	-59,198	0,078	-0,024
-362,912	217,224	-0,044	-0,051
-361,898	98,032	0,062	-0,051
-360,883	-24,382	-0,053	0,023
-359,869	-133,232	0,083	0,008
-358,854	-109,876	0,088	0,013
-357,839	-200,000	0,035	-0,118
-356,825	292,393	0,016	-0,021
-355,810	245,870	-0,041	-0,050
-354,796	-29,823	0,121	0,050
-353,781	-51,892	-0,182	-0,061
-352,766	-125,636	0,107	-0,012
-351,752	-7,877	0,113	0,055
-350,737	62,422	0,072	0,052
-349,723	-112,108	0,171	-0,025
-348,708	-40,733	0,083	0,031
-347,693	-200,000	-0,017	0,089
-346,679	137,733	0,070	-0,067
-345,664	182,868	0,038	0,041
-344,650	168,852	-0,058	0,060
-343,635	148,993	0,075	0,073
-342,620	321,162	-0,034	0,047
-341,606	800,000	-0,037	0,099
-340,591	-200,000	-0,006	0,055
-339,577	-22,779	-0,126	0,055
-338,562	323,441	0,028	-0,039
-337,548	-200,000	0,025	-0,123
-336,533	-60,556	0,129	0,039
-335,518	21,063	0,053	-0,031
-334,504	-200,000	0,057	-0,205
-333,489	-200,000	0,010	0,049
-332,475	484,462	-0,021	0,035
-331,460	800,000	-0,022	-0,052
-330,445	-200,000	0,010	0,200
-329,431	-81,018	-0,084	-0,020
-328,416	162,104	0,087	0,089
-327,402	800,000	0,037	0,082
-326,387	1,948	-0,089	-0,046
-325,372	800,000	-0,061	-0,136
-324,358	-200,000	0,012	-0,088
-323,343	-200,000	-0,016	0,060
-322,329	691,433	-0,074	0,140
-321,314	-200,000	-0,003	-0,016
-320,299	-141,410	0,086	0,006
-319,285	-200,000	-0,012	-0,039
-318,270	800,000	0,057	-0,121
-317,256	-200,000	-0,001	-0,009
-316,241	318,152	-0,068	-0,093
-315,226	-200,000	0,012	-0,044
-314,212	410,069	-0,016	0,025
-313,197	467,260	0,045	-0,073
-312,183	261,301	0,038	0,048
-311,168	130,893	0,135	0,126
-310,153	-44,173	-0,226	-0,082
-309,139	-62,587	0,131	0,039
-308,124	65,131	0,061	0,045
-307,110	-200,000	-0,016	0,133
-306,095	-36,230	0,133	-0,052
-305,080	800,000	-0,034	0,087
-304,066	-147,144	-0,026	0,002
-303,051	106,717	-0,050	0,043
-302,037	-200,000	0,023	-0,092
-301,022	-200,000	-0,009	0,041
-300,008	-145,232	0,079	-0,005
-298,993	-119,145	0,038	0,005
-297,978	48,019	0,095	0,064
-296,964	-200,000	0,002	0,063
-295,949	141,889	-0,108	-0,104
-294,935	195,657	-0,045	0,050
-293,920	-57,852	0,127	0,040
-292,905	321,602	0,062	-0,085
-291,891	476,953	-0,062	-0,101
-290,876	505,955	-0,086	0,145
-289,862	-106,411	0,042	0,007
-288,847	-53,838	-0,091	0,030
-287,832	-200,000	0,004	0,021
-286,818	127,798	0,065	-0,060
-285,803	665,577	-0,016	-0,029
-284,789	-166,809	0,038	-0,001
-283,774	800,000	-0,033	0,069
-282,759	800,000	0,028	-0,057
-281,745	-18,335	0,039	0,017
-280,730	800,000	0,037	-0,077
-279,716	88,075	0,090	-0,072
-278,701	255,137	0,021	0,026
-277,686	-200,000	0,006	-0,086
-276,672	-162,986	0,032	-0,001
-275,657	82,228	0,053	0,041
-274,643	-19,254	-0,028	0,013
-273,628	-17,936	0,022	-0,010
-272,613	-149,700	-0,053	-0,003
-271,599	800,000	-0,024	0,073
-270,584	800,000	0,065	0,190
-269,570	-36,851	0,138	-0,053
-268,555	-54,664	-0,048	0,016
-267,540	-17,708	-0,024	0,011
-266,526	-185,902	-0,100	0,001
-265,511	722,118	0,054	-0,105
-264,497	-125,590	-0,138	-0,015
-263,482	198,320	-0,168	-0,186
-262,467	396,914	-0,067	-0,102
-261,453	-200,000	0,020	0,084
-260,438	-60,872	0,076	-0,023
-259,424	-78,751	-0,060	-0,015
-258,409	800,000	0,045	-0,101
-257,395	311,808	-0,047	-0,064
-256,380	-87,380	0,158	0,034
-255,365	122,759	0,049	0,044
-254,351	80,317	0,139	0,108
-253,336	87,107	-0,049	0,039
-252,322	-200,000	0,023	-0,089
-251,307	800,000	-0,029	-0,074
-250,292	317,661	0,052	0,072
-249,278	140,439	0,145	-0,139
-248,263	-160,390	-0,095	0,004
-247,249	-200,000	-0,006	0,032
-246,234	28,581	0,074	0,045
-245,219	193,723	-0,007	0,007
-244,205	-22,222	-0,055	0,024
-243,190	800,000	-0,046	0,112
-242,176	-93,168	0,166	0,033
-241,161	-15,570	0,012	-0,005
-240,146	-200,000	-0,009	0,065
-239,132	133,167	-0,034	0,032
-238,117	-200,000	0,016	0,095
-237,103	130,366	0,067	-0,062
-236,088	0,702	-0,103	0,053
-235,073	-200,000	-0,007	0,069
-234,059	370,190	-0,123	0,180
-233,044	-200,000	-0,010	0,045
-232,030	-7,438	0,089	0,043
-231,015	247,730	-0,015	0,018
-230,000	-80,034	-0,094	0,023
-228,986	-200,000	-0,019	-0,078
-227,971	177,594	0,089	-0,094
-226,957	-91,465	0,023	-0,005
-225,942	-200,000	-0,004	-0,056
-224,927	111,755	0,039	0,034
-223,913	-88,883	-0,137	0,029
-222,898	-63,509	-0,043	-0,013
-221,884	185,671	-0,033	0,036
-220,869	800,000	0,015	0,033
-219,855	-200,000	0,008	-0,110
-218,840	-52,746	0,106	-0,035
-217,825	-57,663	-0,112	-0,035
-216,811	60,350	0,085	0,060
-215,796	297,863	0,039	-0,051
-214,782	-68,557	-0,218	0,060
-213,767	-200,000	0,156	-0,000
-212,752	800,000	0,009	-0,024
-211,738	13,487	0,124	-0,069
-210,723	800,000	0,030	0,070
-209,709	-25,394	-0,069	-0,029
-208,694	211,700	-0,035	-0,040
-207,679	475,843	0,052	0,085
-206,665	-8,956	-0,119	-0,057
-205,650	-200,000	0,007	-0,099
-204,636	800,000	-0,040	0,088
-203,621	123,345	0,022	-0,020
-202,606	359,026	0,054	-0,078
-201,592	-43,978	-0,051	0,019
-200,577	-31,963	-0,062	-0,025
-199,563	-83,724	0,133	0,030
-198,548	305,769	-0,047	-0,063
-197,533	-200,000	-0,001	-0,154
-196,519	-31,780	0,064	0,026
-195,504	2,916	0,015	0,008
-194,490	116,398	-0,092	-0,081
-193,475	-105,626	0,056	-0,009
-192,460	-200,000	0,012	0,183
-191,446	512,893	-0,022	0,037
-190,431	556,114	0,027	0,047
-189,417	1,887	0,048	-0,025
-188,402	173,536	-0,087	-0,090
-187,387	800,000	0,057	-0,163
-186,373	-114,397	-0,076	0,010
-185,358	113,265	0,046	-0,040
-184,344	-62,451	-0,016	0,005
-183,329	-121,080	0,180	0,022
-182,315	-200,000	0,026	0,218
-181,300	9,917	-0,048	-0,026
-180,285	-48,132	0,087	-0,030
-179,271	-200,000	-0,013	-0,064
-178,256	-146,534	0,123	-0,008
-177,242	800,000	-0,052	0,153
-176,227	-44,988	0,043	0,015
-175,212	585,892	-0,078	-0,138
-174,198	-172,380	0,049	-0,001
-173,183	-200,000	0,020	-0,105
-172,169	800,000	0,020	-0,060
-171,154	-200,000	0,032	-0,133
-170,139	-200,000	0,009	0,096
-169,125	-34,802	0,095	0,037
-168,110	286,275	-0,023	-0,030
-167,096	-200,000	-0,015	0,079
-166,081	693,890	0,029	-0,055
-165,066	482,930	0,062	-0,101
-164,052	-200,000	-0,013	-0,050
-163,037	-200,000	-0,018	0,113
-162,023	181,363	-0,018	0,019
-161,008	-200,000	-0,017	-0,106
-159,993	795,962	-0,052	0,104
-158,979	-31,598	-0,103	-0,041
-157,964	230,532	0,049	-0,058
-156,950	-102,785	0,056	-0,010
-155,935	-200,000	0,014	0,103
-154,920	189,263	0,057	0,062
-153,906	-82,295	-0,025	0,006
-152,891	-200,000	0,008	0,067
-151,877	-200,000	-0,029	0,177
-150,862	113,159	-0,061	0,053
-149,847	800,000	-0,028	-0,068
-148,833	766,776	-0,031	-0,061
-147,818	800,000	-0,040	0,089
-146,804	-200,000	-0,001	0,077
-145,789	16,981	-0,046	0,026
-144,775	-200,000	0,001	0,103
-143,760	39,770	-0,060	0,038
-142,745	181,385	0,099	-0,105
-141,731	145,667	0,088	0,085
-140,716	-130,685	-0,102	-0,010
-139,702	-144,265	0,117	0,008
-138,687	800,000	0,020	-0,049
-137,672	-53,235	0,034	-0,011
-136,658	-200,000	-0,033	-0,186
-135,643	-56,097	-0,050	0,016
-134,629	25,545	0,050	-0,030
-133,614	-135,481	-0,088	0,007
-132,599	-200,000	-0,013	0,048
-131,585	-135,463	0,040	-0,003
-130,570	239,690	0,088	0,105
-129,556	86,844	0,073	0,058
-128,541	-13,651	-0,206	-0,096
-127,526	-147,851	0,153	0,009
-126,512	337,323	0,049	0,068
-125,497	-200,000	-0,011	0,053
-124,483	292,015	0,134	0,175
-123,468	456,823	-0,040	0,064
-122,453	-31,953	0,077	-0,031
-121,439	-200,000	-0,009	-0,057
-120,424	501,257	0,020	-0,034
-119,410	-165,436	-0,032	-0,001
-118,395	83,459	0,101	-0,079
-117,380	64,344	0,041	-0,029
-116,366	146,376	-0,062	-0,060
-115,351	499,935	-0,070	-0,117
-114,337	-50,242	-0,053	-0,018
-113,322	-169,468	0,045	0,001
-112,307	-91,894	0,136	-0,027
-111,293	755,656	0,077	0,150
-110,278	-200,000	-0,017	0,097
-109,264	-200,000	0,028	0,145
-108,249	-40,649	-0,143	-0,053
-107,234	321,014	0,065	-0,090
-106,220	20,340	-0,043	-0,025
-105,205	181,424	0,118	-0,125
-104,191	297,103	-0,044	0,059
-103,176	107,963	0,044	-0,038
-102,162	224,269	-0,059	0,068
-101,147	191,782	0,106	0,115
-100,132	416,818	0,030	-0,047
-99,118	16,756	-0,094	-0,054
-98,103	-200,000	-0,005	0,113
-97,089	-48,437	-0,072	0,025
-96,074	-75,480	0,148	0,038
-95,059	512,722	-0,028	-0,048
-94,045	-200,000	-0,009	-0,145
-93,030	-200,000	0,025	0,231
-92,016	81,978	-0,134	-0,105
-91,001	-200,000	-0,004	-0,090
-89,986	-200,000	-0,006	0,071
-88,972	-200,000	0,008	-0,082
-87,957	-30,108	0,045	0,018
-86,943	-79,218	-0,168	-0,041
-85,928	-1,395	0,063	0,032
-84,913	-77,876	-0,010	0,002
-83,899	-20,490	0,076	-0,033
-82,884	71,892	0,028	-0,021
-81,870	800,000	0,009	-0,021
-80,855	37,482	0,044	0,028
-79,840	800,000	-0,015	0,038
-78,826	66,183	0,097	-0,070
-77,811	-200,000	-0,037	-0,149
-76,797	271,552	0,034	-0,043
-75,782	13,786	0,059	0,033
-74,767	428,263	0,033	-0,051
-73,753	286,706	0,083	0,108
-72,738	14,167	-0,101	-0,056
-71,724	-200,000	-0,019	-0,101
-70,709	800,000	0,062	0,126
-69,694	254,943	0,010	0,013
-68,680	800,000	0,011	-0,024
-67,665	-29,353	-0,088	0,036
-66,651	25,697	-0,070	-0,042
-65,636	-54,457	0,180	0,058
-64,622	-200,000	0,031	0,128
-63,607	-85,815	-0,207	-0,046
-62,592	140,713	-0,073	0,070
-61,578	-146,990	0,033	0,002
-60,563	800,000	0,032	0,087
-59,549	800,000	0,011	0,022
-58,534	11,173	-2,099	-1,149
-57,519	-200,000	-0,211	-0,814
-56,505	-200,000	-1,379	-5,052
-55,490	77,433	0,763	0,582
-54,476	800,000	5,317	12,023
-53,461	-200,000	18,143	300,745
-52,446	800,000	735,419	2275,569
-51,432	546,517	1651,690	2845,309
-50,417	109,909	1638,507	1409,825
-49,403	74,629	1289,044	971,750
-48,388	30,981	1029,052	631,308
-47,373	20,117	991,088	572,127
-46,359	17,872	979,085	557,803
-45,344	14,793	974,813	545,254
-44,330	15,040	973,484	545,297
-43,315	14,481	971,593	542,389
-42,300	14,452	970,373	541,592
-41,286	14,416	969,605	541,023
-40,271	14,427	968,554	540,452
-39,257	14,427	967,872	540,050
-38,242	14,416	966,835	539,412
-37,227	14,458	965,776	538,938
-36,213	14,427	965,032	538,399
-35,198	14,438	964,132	537,914
-34,184	14,465	963,447	537,598
-33,169	14,406	962,433	536,818
-32,154	14,424	961,491	536,329
-31,140	14,404	960,630	535,765
-30,125	14,562	959,667	535,716
-29,111	14,507	959,098	535,199
-28,096	14,466	958,199	534,543
-27,082	14,479	957,664	534,266
-26,067	14,451	956,924	533,743
-25,052	14,399	956,217	533,160
-24,038	14,445	955,609	532,948
-23,023	14,395	955,132	532,498
-22,009	14,469	954,282	532,242
-20,994	14,488	953,576	531,888
-19,979	14,463	952,855	531,385
-18,965	14,361	952,473	530,824
-17,950	14,419	951,910	530,673
-16,936	14,378	951,020	530,027
-15,921	14,332	950,555	529,599
-14,906	14,338	949,498	529,006
-13,892	14,376	948,938	528,795
-12,877	14,299	948,446	528,254
-11,863	14,305	947,931	527,965
-10,848	14,323	947,136	527,561
-9,833	14,437	946,807	527,717
-8,819	14,388	946,027	527,107
-7,804	14,385	945,455	526,757
-6,790	14,334	944,951	526,296
-5,775	14,297	944,522	525,916
-4,760	14,379	943,687	525,691
-3,746	14,353	943,141	525,283
-2,731	14,233	942,493	524,521
-1,717	14,220	941,676	524,005
-0,702	14,210	941,187	523,682
0,313	14,000	940,430	523,383
1,327	17,196	938,201	532,184
2,342	26,122	794,319	474,234
3,356	22,768	459,432	269,135
4,371	-4,356	316,278	156,261
5,386	-8,278	298,079	143,262
6,400	-10,333	292,063	138,305
7,415	-10,555	289,523	136,870
8,429	-10,852	288,115	135,899
9,444	-10,949	287,307	135,410
10,459	-10,930	286,570	135,070
11,473	-11,059	286,066	134,694
12,488	-10,886	285,570	134,617
13,502	-10,682	284,855	134,467
14,517	-10,825	284,523	134,160
15,531	-10,942	284,109	133,839
16,546	-10,897	283,791	133,720
17,561	-10,717	283,282	133,643
18,575	-10,661	283,012	133,558
19,590	-10,844	282,570	133,161
20,604	-10,776	282,357	133,114
21,619	-10,878	282,020	132,845
22,634	-10,878	281,634	132,652
23,648	-10,784	281,368	132,605
24,663	-10,826	280,911	132,337
25,677	-10,727	280,748	132,343
26,692	-10,677	280,550	132,287
27,707	-10,756	280,288	132,075
28,721	-10,710	280,004	131,974
29,736	-10,770	279,632	131,729
30,750	-10,792	279,357	131,567
31,765	-10,699	279,124	131,534
32,780	-10,754	278,935	131,381
33,794	-10,779	278,577	131,177
34,809	-10,789	278,401	131,073
35,823	-10,606	278,018	131,055
36,838	-10,923	277,829	130,653
37,853	-10,960	277,681	130,537
38,867	-10,905	277,527	130,505
39,882	-10,902	277,206	130,345
40,896	-10,820	276,873	130,254
41,911	-10,885	276,642	130,073
42,926	-10,894	276,442	129,959
43,940	-10,948	276,206	129,785
44,955	-10,809	275,854	129,739
45,969	-10,931	275,733	129,556
46,984	-11,070	275,488	129,298
47,999	-11,257	275,195	128,974
49,013	-11,372	275,005	128,766
50,028	-11,321	274,614	128,618
51,042	-11,333	274,307	128,452
52,057	-11,384	274,118	128,304
53,071	-11,462	273,979	128,155
54,086	-11,348	273,673	128,107
55,101	-11,302	273,608	128,108
56,115	-11,141	273,443	128,169
57,130	-10,879	273,179	128,279
58,144	-10,821	272,959	128,217
59,159	-10,766	272,710	128,140
60,174	-10,604	272,669	128,260
61,188	-10,667	272,290	128,012
62,203	-10,834	272,194	127,800
63,217	-10,701	271,833	127,743
64,232	-10,834	271,818	127,601
65,247	-10,751	271,489	127,512
66,261	-10,624	271,207	127,486
67,276	-10,779	270,920	127,196
68,290	-11,085	270,449	126,682
69,305	-11,123	270,295	126,564
70,320	-11,064	270,257	126,589
71,334	-10,800	270,121	126,756
72,349	-10,819	269,962	126,653
73,363	-10,877	269,634	126,434
74,378	-11,006	269,594	126,287
75,393	-10,603	269,245	126,481
76,407	-10,552	269,044	126,422
77,422	-10,911	268,863	125,997
78,436	-10,683	268,569	126,057
79,451	-10,744	268,349	125,886
80,466	-10,796	268,119	125,719
81,480	-11,000	267,920	125,429
82,495	-10,870	267,664	125,417
83,509	-10,925	267,634	125,341
84,524	-10,931	267,209	125,125
85,539	-10,958	267,077	125,028
86,553	-11,027	266,754	124,803
87,568	-10,894	266,626	124,852
88,582	-10,818	266,442	124,824
89,597	-11,068	266,249	124,497
90,611	-10,898	265,961	124,504
91,626	-10,795	266,005	124,607
92,641	-10,640	265,693	124,590
93,655	-10,690	265,466	124,427
94,670	-10,712	265,164	124,255
95,684	-10,647	265,095	124,270
96,699	-10,947	264,935	123,913
97,714	-10,812	264,614	123,874
98,728	-10,818	264,407	123,760
99,743	-11,058	264,219	123,446
100,757	-11,167	263,906	123,191
101,772	-11,190	263,894	123,154
102,787	-11,072	263,611	123,117
103,801	-10,774	263,474	123,308
104,816	-10,779	263,296	123,210
105,830	-10,660	263,035	123,182
106,845	-10,861	262,990	122,972
107,860	-10,821	262,694	122,857
108,874	-10,837	262,561	122,770
109,889	-10,682	262,256	122,754
110,903	-10,859	262,052	122,491
111,918	-10,822	261,874	122,429
112,933	-10,747	261,508	122,314
113,947	-10,675	261,487	122,357
114,962	-10,612	261,202	122,268
115,976	-10,792	260,993	122,000
116,991	-10,734	260,811	121,956
118,006	-10,676	260,821	122,000
119,020	-10,736	260,629	121,847
120,035	-10,720	260,442	121,763
121,049	-10,672	260,138	121,652
122,064	-10,672	260,053	121,602
123,079	-10,747	259,744	121,380
124,093	-10,654	259,545	121,358
125,108	-10,756	259,273	121,130
126,122	-10,953	259,035	120,836
127,137	-11,073	258,812	120,616
128,151	-11,157	258,710	120,484
129,166	-11,058	258,476	120,451
130,181	-10,773	258,336	120,625
131,195	-10,943	258,027	120,321
132,210	-10,819	258,088	120,447
133,224	-10,595	257,699	120,450
134,239	-10,834	257,681	120,222
135,254	-10,780	257,306	120,084
136,268	-10,701	257,083	120,037
137,283	-11,081	256,929	119,624
138,297	-10,908	256,730	119,672
139,312	-11,066	256,527	119,429
140,327	-10,824	256,533	119,631
141,341	-10,435	256,105	119,758
142,356	-10,563	255,991	119,583
143,370	-10,653	255,949	119,475
144,385	-10,786	255,839	119,298
145,400	-10,436	255,482	119,423
146,414	-10,408	255,324	119,363
147,429	-10,375	255,104	119,278
148,443	-10,615	255,126	119,071
149,458	-10,567	254,796	118,947
150,473	-10,492	254,733	118,972
151,487	-10,621	254,421	118,704
152,502	-10,727	254,341	118,565
153,516	-10,390	254,046	118,707
154,531	-10,729	254,126	118,442
155,546	-10,661	253,736	118,308
156,560	-10,749	253,548	118,134
157,575	-10,713	253,333	118,054
158,589	-10,648	253,133	118,007
159,604	-10,509	252,947	118,028
160,619	-10,581	252,694	117,838
161,633	-10,757	252,661	117,662
162,648	-10,594	252,394	117,666
163,662	-10,622	252,409	117,639
164,677	-10,715	252,264	117,481
165,692	-10,688	252,027	117,383
166,706	-10,577	251,799	117,362
167,721	-10,653	251,583	117,186
168,735	-10,570	251,598	117,253
169,750	-10,510	251,273	117,141
170,764	-10,513	251,241	117,113
171,779	-10,368	250,977	117,103
172,794	-10,579	250,966	116,909
173,808	-10,549	250,637	116,771
174,823	-10,811	250,274	116,370
175,837	-11,017	250,112	116,111
176,852	-10,905	250,131	116,203
177,867	-10,458	249,976	116,498
178,881	-10,437	249,884	116,462
179,896	-10,586	249,618	116,202
180,910	-10,634	249,521	116,107
181,925	-10,333	249,183	116,191
182,940	-10,582	249,221	115,990
183,954	-10,517	248,869	115,870
184,969	-10,713	248,842	115,683
185,983	-10,736	248,699	115,587
186,998	-10,460	248,510	115,720
188,013	-10,538	248,399	115,593
189,027	-10,422	248,029	115,507
190,042	-10,397	247,794	115,408
191,056	-10,394	247,559	115,291
192,071	-10,481	247,419	115,142
193,086	-10,476	247,412	115,134
194,100	-10,611	247,146	114,887
195,115	-10,456	247,035	114,954
196,129	-10,603	246,915	114,765
197,144	-10,511	246,470	114,625
198,159	-10,555	246,447	114,568
199,173	-10,739	246,296	114,334
200,188	-10,667	246,028	114,260
201,202	-10,965	245,881	113,935
202,217	-11,128	245,591	113,655
203,232	-11,081	245,336	113,566
204,246	-10,721	245,290	113,832
205,261	-10,639	245,257	113,874
206,275	-11,350	244,809	113,070
207,290	-6,647	246,737	117,850
208,304	1,386	249,092	125,667
209,319	3,991	249,992	128,283
210,334	4,529	249,853	128,649
211,348	4,712	249,767	128,745
212,363	4,949	249,674	128,883
213,377	5,170	249,617	129,026
214,392	4,972	249,387	128,731
215,407	4,739	249,100	128,378
216,421	4,841	248,892	128,344
217,436	5,167	248,863	128,588
218,450	5,225	248,805	128,595
219,465	4,833	248,478	128,090
220,480	4,742	248,173	127,846
221,494	4,461	248,148	127,589
222,509	4,628	247,956	127,617
223,523	4,388	247,835	127,345
224,538	4,309	247,542	127,118
225,553	4,462	247,398	127,159
226,567	4,458	247,230	127,058
227,582	4,446	247,112	126,976
228,596	4,675	246,935	127,062
229,611	4,144	246,742	126,516
230,626	4,217	246,354	126,365
231,640	4,292	246,423	126,451
232,655	4,524	246,192	126,511
233,669	4,148	246,063	126,125
234,684	4,046	245,885	125,939
235,699	4,351	245,897	126,184
236,713	4,581	245,810	126,317
237,728	4,382	245,454	125,960
238,742	4,251	245,191	125,706
239,757	4,288	245,058	125,658
240,772	4,211	244,958	125,532
241,786	4,464	244,866	125,680
242,801	4,046	244,602	125,193
243,815	4,082	244,510	125,164
244,830	4,377	244,421	125,347
245,844	4,450	244,274	125,320
246,859	4,321	243,953	125,040
247,874	4,206	243,815	124,864
248,888	4,469	243,652	124,982
249,903	4,452	243,620	124,942
250,917	4,395	243,541	124,843
251,932	4,640	243,337	124,925
252,947	4,504	243,126	124,697
253,961	4,179	242,936	124,325
254,976	4,429	242,719	124,405
255,990	4,567	242,621	124,455
257,005	4,242	242,425	124,082
258,020	3,967	242,369	123,821
259,034	4,176	242,159	123,870
260,049	4,238	242,175	123,917
261,063	4,146	241,853	123,668
262,078	4,249	241,636	123,628
263,093	4,447	241,546	123,730
264,107	4,474	241,394	123,663
265,122	4,254	241,158	123,355
266,136	4,266	241,115	123,331
267,151	4,554	241,096	123,541
268,166	4,356	240,581	123,108
269,180	4,250	240,488	122,964
270,195	4,708	240,558	123,355
271,209	4,931	240,419	123,450
272,224	4,488	240,178	122,963
273,239	3,894	239,891	122,333
274,253	3,908	239,895	122,335
275,268	4,457	239,633	122,626
276,282	4,437	239,471	122,517
277,297	4,057	239,284	122,109
278,312	4,157	239,155	122,112
279,326	4,294	239,019	122,140
280,341	4,390	238,923	122,156
281,355	4,432	238,793	122,111
282,370	4,393	238,713	122,029
283,384	4,239	238,450	121,762
284,399	4,025	238,289	121,500
285,414	3,886	238,167	121,317
286,428	3,986	237,949	121,274
287,443	4,327	237,777	121,444
288,457	4,319	237,687	121,381
289,472	4,511	237,519	121,435
290,487	4,205	237,311	121,078
291,501	4,166	237,122	120,940
292,516	3,975	236,942	120,687
293,530	4,003	236,785	120,619
294,545	4,437	236,914	121,014
295,560	4,419	236,560	120,808
296,574	3,963	236,434	120,377
297,589	4,093	236,332	120,415
298,603	4,277	236,344	120,555
299,618	4,458	236,063	120,542
300,633	4,413	235,890	120,408
301,647	4,515	235,735	120,397
302,662	4,634	235,767	120,496
303,676	4,876	235,545	120,561
304,691	4,793	235,323	120,371
305,706	4,715	235,362	120,320
306,720	4,684	235,361	120,284
307,735	4,356	234,987	119,828
308,749	4,344	234,781	119,703
309,764	4,270	234,489	119,486
310,779	4,145	234,148	119,204
311,793	3,903	234,045	118,954
312,808	3,829	233,950	118,839
313,822	3,651	233,756	118,592
314,837	4,140	233,630	118,894
315,852	4,216	233,653	118,955
316,866	4,357	233,682	119,067
317,881	4,830	233,396	119,276
318,895	4,461	233,297	118,930
319,910	4,472	233,128	118,842
320,925	4,133	232,978	118,494
321,939	4,261	232,883	118,534
322,954	4,768	232,669	118,803
323,968	4,426	232,557	118,473
324,983	4,357	232,273	118,265
325,997	4,733	232,184	118,498
327,012	4,650	232,040	118,349
328,027	4,359	231,860	118,025
329,041	4,561	231,844	118,160
330,056	5,037	231,849	118,517
331,070	5,068	231,794	118,502
332,085	4,863	231,441	118,153
333,100	4,768	231,019	117,856
334,114	4,428	231,043	117,598
335,129	4,676	230,993	117,752
336,143	4,838	230,918	117,826
337,158	4,637	230,707	117,555
338,173	4,364	230,479	117,221
339,187	4,269	230,355	117,075
340,202	4,413	230,213	117,102
341,216	4,453	229,960	116,993
342,231	4,214	229,858	116,750
343,246	4,494	229,676	116,859
344,260	4,335	229,774	116,777
345,275	4,724	229,558	116,951
346,289	4,719	229,500	116,908
347,304	4,651	229,342	116,766
348,319	4,667	229,078	116,633
349,333	4,403	229,035	116,401
350,348	4,351	228,746	116,205
351,362	4,453	228,547	116,171
352,377	4,144	228,261	115,782
353,392	3,940	228,130	115,553
354,406	4,260	227,940	115,686
355,421	194,518	1321,158	1394,146
356,435	155,942	1454,314	1394,114
