DTS Sentinel unit serial number:	SN410029Multiplexer serial number:	ORYXHardware model number:	OX2-SRSoftware version number:	ORYX F/W v4,00 Oryx Data Collector v3.7.2.0data status	okinstallation	B5 Nyhavnadifferential loss correction	single-endedforward channel	channel 2reverse channel	N/Adate	2023/12/13time	05:47:13forward acquisition time	300,00reverse acquisition time	0,00gamma	499,1914k internal	0,3160k external	0,3160temperature offset calibration	1,0000default loss term (dB/km)	0,3820temperature slope calibration	1,0000multiplexer offset coefficient	1,0000multiplexer slope coefficient	1,0000fibre end	0,00T internal ref (°C)	13,82T ext. ref 1 (°C)	-2,64T ext. ref 2 (°C)	-2,96length (m)	temperature (°C)	Stokes	anti-Stokes-744,400	441,711	0,083	0,134
-743,385	-51,103	-0,285	0,098
-742,371	41,242	0,128	0,085
-741,356	-92,621	-0,200	0,041
-740,342	396,775	0,032	0,049
-739,327	-59,958	-0,277	0,087
-738,312	433,630	0,072	0,116
-737,298	-41,569	-0,378	-0,143
-736,283	-45,299	0,100	-0,036
-735,269	-72,220	-0,294	-0,080
-734,254	111,813	-0,027	-0,024
-733,239	-22,563	-0,597	-0,265
-732,225	-77,856	0,159	-0,040
-731,210	-127,571	0,090	0,010
-730,196	-200,000	0,003	-0,042
-729,181	-200,000	0,012	-0,132
-728,167	249,744	-0,034	-0,043
-727,152	389,282	-0,106	-0,162
-726,137	135,029	-0,077	-0,074
-725,123	-200,000	-0,020	-0,143
-724,108	86,926	-0,060	-0,049
-723,094	29,730	-0,176	-0,110
-722,079	78,949	0,068	-0,054
-721,064	-30,757	-0,130	0,054
-720,050	-63,926	0,055	0,016
-719,035	-18,531	0,090	-0,041
-718,021	227,253	-0,095	-0,114
-717,006	-22,463	-0,120	-0,053
-715,991	800,000	-0,073	-0,162
-714,977	75,133	-0,097	-0,075
-713,962	-67,102	-0,088	-0,025
-712,948	434,462	0,078	0,126
-711,933	-97,662	0,134	-0,025
-710,918	55,627	-0,041	0,029
-709,904	-96,619	-0,087	0,017
-708,889	800,000	-0,022	-0,051
-707,875	800,000	-0,042	-0,089
-706,860	0,572	0,138	-0,073
-705,845	-124,784	0,060	-0,007
-704,831	-30,401	0,040	0,017
-703,816	-38,903	-0,141	-0,054
-702,802	-10,587	0,045	0,022
-701,787	66,661	-0,041	0,031
-700,772	-200,000	-0,005	-0,035
-699,758	312,500	0,054	0,074
-698,743	-124,108	0,117	0,013
-697,729	268,536	0,074	0,095
-696,714	-102,302	-0,068	0,012
-695,699	92,015	-0,048	-0,040
-694,685	154,912	0,043	0,044
-693,670	58,774	0,085	0,062
-692,656	-146,333	0,128	0,008
-691,641	17,621	0,123	0,072
-690,627	800,000	0,012	0,035
-689,612	56,521	-0,054	-0,039
-688,597	-200,000	0,012	-0,059
-687,583	73,020	-0,082	-0,063
-686,568	88,695	-0,160	-0,130
-685,554	-179,037	-0,142	0,002
-684,539	-59,094	0,057	-0,018
-683,524	800,000	-0,042	0,115
-682,510	-200,000	0,006	0,038
-681,495	108,525	-0,083	-0,073
-680,481	-20,960	-0,158	-0,071
-679,466	-171,664	-0,058	-0,001
-678,451	300,260	-0,059	-0,080
-677,437	57,728	0,101	0,073
-676,422	-200,000	-0,007	0,144
-675,408	517,122	-0,102	0,175
-674,393	85,493	-0,096	-0,078
-673,378	800,000	-0,035	-0,094
-672,364	119,842	-0,115	-0,104
-671,349	-144,660	-0,049	0,003
-670,335	800,000	-0,014	0,029
-669,320	-16,815	0,051	0,024
-668,305	-200,000	-0,018	0,078
-667,291	-110,809	-0,039	0,006
-666,276	-200,000	-0,036	-0,158
-665,262	-139,359	-0,087	-0,007
-664,247	20,883	-0,113	0,067
-663,232	-200,000	0,009	0,031
-662,218	-200,000	-0,002	0,007
-661,203	-200,000	-0,008	0,032
-660,189	45,790	0,091	0,062
-659,174	-8,897	0,049	-0,024
-658,159	358,860	0,029	-0,043
-657,145	471,442	-0,090	-0,150
-656,130	800,000	0,059	-0,120
-655,116	537,712	0,031	-0,054
-654,101	-200,000	-0,015	-0,098
-653,086	18,007	0,120	0,070
-652,072	-200,000	-0,000	-0,073
-651,057	-75,938	-0,096	0,025
-650,043	-166,953	0,044	0,001
-649,028	50,036	-0,042	0,029
-648,014	800,000	-0,069	0,171
-646,999	65,448	0,033	0,025
-645,984	800,000	-0,038	0,082
-644,970	-200,000	-0,005	0,138
-643,955	74,342	0,044	-0,034
-642,941	-80,916	-0,066	0,016
-641,926	-68,699	0,059	0,017
-640,911	186,785	0,103	-0,113
-639,897	-200,000	-0,031	0,143
-638,882	-200,000	-0,005	-0,031
-637,868	800,000	-0,047	-0,106
-636,853	165,284	0,035	-0,037
-635,838	-97,044	-0,032	0,006
-634,824	48,937	0,051	0,035
-633,809	-72,274	0,119	0,032
-632,795	-30,547	0,152	-0,063
-631,780	219,224	-0,106	0,125
-630,765	61,890	-0,081	-0,059
-629,751	-116,752	-0,071	0,010
-628,736	-176,691	-0,048	0,001
-627,722	-200,000	0,008	0,104
-626,707	800,000	-0,044	0,104
-625,692	-200,000	0,008	0,115
-624,678	-144,068	-0,067	0,005
-623,663	-29,639	-0,087	0,036
-622,649	5,130	-0,098	-0,053
-621,634	253,866	0,066	-0,083
-620,619	664,554	0,036	-0,069
-619,605	-200,000	0,035	0,123
-618,590	800,000	0,028	0,071
-617,576	-109,755	-0,084	0,013
-616,561	-0,814	0,073	0,038
-615,546	800,000	-0,074	-0,153
-614,532	24,102	0,111	-0,067
-613,517	645,732	-0,044	-0,083
-612,503	-72,673	-0,137	-0,037
-611,488	-200,000	0,004	-0,026
-610,474	308,467	-0,115	0,157
-609,459	800,000	0,046	0,095
-608,444	645,742	-0,026	0,049
-607,430	-200,000	0,013	-0,135
-606,415	-64,583	-0,098	-0,029
-605,401	-200,000	-0,048	-0,203
-604,386	800,000	-0,048	0,117
-603,371	-33,909	0,035	0,014
-602,357	-200,000	-0,014	-0,062
-601,342	429,088	-0,046	-0,073
-600,328	18,681	-0,129	-0,076
-599,313	81,421	0,059	0,046
-598,298	747,829	0,034	-0,068
-597,284	97,922	-0,063	0,053
-596,269	125,127	0,122	0,113
-595,255	177,142	-0,062	0,066
-594,240	39,338	0,055	-0,036
-593,225	120,259	-0,041	0,037
-592,211	512,044	-0,017	-0,030
-591,196	39,474	0,014	0,009
-590,182	-200,000	0,004	0,028
-589,167	-200,000	-0,016	0,080
-588,152	-200,000	-0,004	0,049
-587,138	161,001	-0,038	-0,038
-586,123	-10,070	0,104	0,050
-585,109	-200,000	0,001	0,019
-584,094	-200,000	-0,001	-0,040
-583,079	800,000	0,052	-0,108
-582,065	-200,000	-0,034	0,135
-581,050	-44,037	0,094	0,034
-580,036	131,200	-0,059	0,055
-579,021	67,855	-0,055	0,041
-578,006	275,670	0,096	-0,125
-576,992	-200,000	0,012	-0,137
-575,977	185,177	-0,070	0,076
-574,963	474,800	-0,042	-0,070
-573,948	-54,179	-0,040	0,013
-572,934	-200,000	0,001	-0,079
-571,919	-107,681	-0,124	0,020
-570,904	800,000	-0,020	-0,051
-569,890	800,000	-0,076	-0,163
-568,875	-200,000	0,015	-0,067
-567,861	39,434	0,045	0,029
-566,846	-170,693	-0,022	0,001
-565,831	-200,000	0,018	0,079
-564,817	49,176	0,107	-0,073
-563,802	-168,904	-0,072	-0,002
-562,788	527,873	-0,053	0,092
-561,773	-200,000	0,004	-0,062
-560,758	800,000	-0,023	-0,071
-559,744	-200,000	0,019	0,168
-558,729	191,300	0,095	-0,105
-557,715	445,708	-0,051	0,082
-556,700	800,000	0,052	-0,138
-555,685	-95,446	0,137	-0,027
-554,671	-4,159	0,120	0,061
-553,656	2,583	-0,036	0,019
-552,642	-200,000	0,006	-0,115
-551,627	-128,285	-0,048	0,005
-550,612	8,877	-0,078	-0,043
-549,598	12,286	-0,234	-0,131
-548,583	-20,902	0,129	-0,058
-547,569	121,867	0,121	0,110
-546,554	225,612	0,003	0,004
-545,539	57,724	-0,021	0,015
-544,525	-200,000	-0,003	-0,019
-543,510	-200,000	-0,009	-0,057
-542,496	-0,851	-0,108	-0,056
-541,481	-200,000	0,001	-0,009
-540,466	800,000	0,050	0,107
-539,452	-104,011	-0,067	0,011
-538,437	-72,561	-0,008	0,002
-537,423	-29,375	0,018	0,008
-536,408	-40,338	0,054	-0,021
-535,393	-159,622	-0,168	-0,007
-534,379	800,000	0,019	0,056
-533,364	-200,000	-0,026	-0,090
-532,350	-101,622	0,144	-0,025
-531,335	800,000	-0,019	-0,055
-530,321	-95,738	-0,113	-0,022
-529,306	800,000	0,022	-0,066
-528,291	-75,367	-0,054	-0,014
-527,277	-18,033	-0,088	-0,040
-526,262	-121,454	0,076	0,009
-525,248	-200,000	-0,112	0,000
-524,233	15,913	0,087	-0,050
-523,218	-146,153	0,075	-0,005
-522,204	86,329	0,043	0,035
-521,189	-132,315	0,065	-0,006
-520,175	-200,000	-0,004	-0,035
-519,160	12,131	-0,123	-0,069
-518,145	250,292	-0,050	0,062
-517,131	193,994	0,083	0,092
-516,116	314,606	0,027	0,038
-515,102	800,000	-0,033	-0,100
-514,087	-108,410	0,199	-0,031
-513,072	-104,869	-0,174	0,029
-512,058	44,320	-0,044	0,030
-511,043	-200,000	0,005	0,078
-510,029	-200,000	0,022	0,095
-509,014	-52,410	0,057	-0,019
-507,999	-89,680	-0,072	0,015
-506,985	-78,112	-0,033	0,008
-505,970	-145,949	-0,153	0,010
-504,956	-122,580	-0,046	0,005
-503,941	-14,236	0,068	0,032
-502,926	-76,030	0,123	-0,032
-501,912	147,645	-0,065	-0,064
-500,897	-200,000	-0,043	0,244
-499,883	-1,135	0,109	0,056
-498,868	-108,608	-0,120	-0,019
-497,853	-157,706	0,076	0,003
-496,839	-200,000	-0,030	-0,163
-495,824	28,349	0,046	-0,028
-494,810	-200,000	-0,016	0,132
-493,795	-200,000	0,009	0,063
-492,781	800,000	-0,030	0,093
-491,766	-131,362	-0,060	-0,006
-490,751	-200,000	0,003	-0,053
-489,737	-71,875	-0,118	-0,032
-488,722	-200,000	0,016	-0,097
-487,708	63,424	-0,057	0,042
-486,693	-98,650	-0,072	-0,013
-485,678	71,799	0,088	-0,066
-484,664	800,000	-0,026	0,070
-483,649	152,549	-0,023	-0,023
-482,635	172,604	0,046	0,048
-481,620	185,857	-0,121	0,131
-480,605	214,367	0,020	0,024
-479,591	106,373	-0,031	-0,027
-478,576	-200,000	-0,002	-0,067
-477,562	109,949	-0,039	0,034
-476,547	800,000	0,020	-0,054
-475,532	232,531	-0,146	-0,175
-474,518	-83,717	0,084	0,019
-473,503	195,602	-0,049	-0,054
-472,489	65,680	0,055	-0,041
-471,474	788,757	0,068	0,138
-470,459	800,000	-0,059	0,121
-469,445	-139,602	-0,181	0,014
-468,430	-136,857	0,151	-0,013
-467,416	189,556	0,084	-0,092
-466,401	-25,530	0,128	-0,055
-465,386	120,224	-0,038	0,034
-464,372	-143,590	0,098	0,007
-463,357	-27,099	0,030	-0,013
-462,343	-200,000	0,013	-0,112
-461,328	800,000	0,018	-0,053
-460,313	7,270	-0,111	-0,060
-459,299	-200,000	-0,003	-0,059
-458,284	-118,399	-0,042	0,005
-457,270	-102,616	-0,051	0,009
-456,255	85,052	0,088	-0,070
-455,241	8,982	-0,083	-0,046
-454,226	88,177	-0,078	0,063
-453,211	-85,720	0,112	-0,025
-452,197	800,000	0,048	-0,105
-451,182	208,648	-0,095	-0,109
-450,168	-25,394	-0,149	-0,064
-449,153	172,087	0,064	-0,067
-448,138	259,329	-0,038	0,048
-447,124	-200,000	0,011	-0,051
-446,109	-108,628	-0,019	-0,003
-445,095	506,929	-0,053	-0,090
-444,080	-200,000	0,025	-0,136
-443,065	-200,000	-0,009	0,038
-442,051	175,762	0,142	-0,150
-441,036	341,160	0,038	-0,055
-440,022	-200,000	0,023	-0,074
-439,007	1,182	0,125	-0,065
-437,992	800,000	-0,007	-0,021
-436,978	186,162	0,129	0,140
-435,963	-200,000	0,051	0,254
-434,949	-60,050	-0,079	-0,024
-433,934	226,647	0,018	-0,022
-432,919	800,000	0,048	0,108
-431,905	389,710	0,041	-0,062
-430,890	103,566	0,049	-0,042
-429,876	-162,367	0,101	0,004
-428,861	676,108	-0,039	0,074
-427,846	26,600	-0,122	0,074
-426,832	-200,000	-0,003	0,122
-425,817	-200,000	-0,055	-0,193
-424,803	250,115	0,111	-0,138
-423,788	-46,063	0,082	-0,029
-422,773	-11,103	-0,041	0,019
-421,759	-69,101	-0,104	0,029
-420,744	259,991	0,055	0,070
-419,730	-117,483	-0,034	0,004
-418,715	284,803	-0,059	-0,078
-417,701	-72,984	0,125	-0,033
-416,686	82,486	0,076	0,060
-415,671	2,174	0,165	-0,086
-414,657	-200,000	-0,001	0,055
-413,642	-71,068	-0,027	-0,007
-412,628	340,694	0,062	0,088
-411,613	-200,000	-0,016	-0,074
-410,598	-124,552	-0,069	-0,008
-409,584	-200,000	0,011	0,051
-408,569	-12,104	-0,039	0,018
-407,555	23,381	-0,054	-0,032
-406,540	57,619	0,067	-0,047
-405,525	62,198	0,026	0,019
-404,511	538,825	-0,063	0,110
-403,496	289,535	-0,049	-0,065
-402,482	-94,466	0,150	-0,029
-401,467	713,608	-0,045	-0,088
-400,452	800,000	-0,025	0,053
-399,438	130,251	-0,035	0,033
-398,423	-153,874	-0,051	-0,002
-397,409	-200,000	-0,019	-0,137
-396,394	800,000	-0,027	-0,065
-395,379	262,577	-0,056	-0,071
-394,365	-10,564	0,151	-0,072
-393,350	-90,748	-0,064	0,013
-392,336	-200,000	-0,012	0,191
-391,321	-2,619	0,095	-0,048
-390,306	6,343	0,019	-0,010
-389,292	161,812	-0,049	-0,050
-388,277	-200,000	-0,024	-0,136
-387,263	-200,000	0,001	-0,012
-386,248	-103,941	0,118	0,020
-385,233	-200,000	0,008	0,095
-384,219	625,169	-0,013	-0,024
-383,204	-200,000	-0,000	-0,139
-382,190	146,345	0,042	-0,041
-381,175	-200,000	0,006	-0,022
-380,160	-200,000	-0,012	0,060
-379,146	80,908	0,077	-0,061
-378,131	-200,000	-0,022	-0,110
-377,117	242,083	-0,053	0,065
-376,102	-69,729	0,036	0,010
-375,088	800,000	-0,042	0,114
-374,073	800,000	0,053	0,159
-373,058	-200,000	0,004	-0,034
-372,044	295,983	0,059	0,078
-371,029	-16,845	0,062	-0,028
-370,015	800,000	0,027	-0,055
-369,000	74,010	0,009	-0,007
-367,985	34,989	-0,142	0,090
-366,971	-110,200	-0,065	-0,010
-365,956	340,924	-0,029	0,041
-364,942	-10,863	0,188	0,090
-363,927	339,870	0,069	0,097
-362,912	-88,971	-0,026	-0,005
-361,898	-200,000	-0,010	0,049
-360,883	-148,327	-0,097	-0,006
-359,869	525,711	-0,014	0,024
-358,854	4,044	0,010	-0,005
-357,839	-200,000	0,018	0,082
-356,825	-200,000	0,011	0,159
-355,810	-200,000	-0,005	0,034
-354,796	23,994	-0,043	0,026
-353,781	800,000	-0,047	-0,102
-352,766	-200,000	0,000	-0,132
-351,752	712,567	-0,018	-0,034
-350,737	325,844	-0,054	0,075
-349,723	800,000	0,034	-0,103
-348,708	355,970	0,044	0,064
-347,693	-44,330	-0,017	0,006
-346,679	456,610	-0,008	0,013
-345,664	32,741	0,067	0,042
-344,650	390,039	0,067	0,100
-343,635	286,158	-0,093	0,121
-342,620	294,710	0,081	0,108
-341,606	-20,745	0,094	-0,041
-340,591	536,144	-0,022	-0,039
-339,577	-35,092	-0,105	-0,041
-338,562	-87,296	-0,200	0,044
-337,548	4,903	0,118	-0,063
-336,533	-176,918	0,168	-0,003
-335,518	-112,509	0,062	-0,009
-334,504	-14,345	-0,111	0,051
-333,489	75,920	0,046	-0,036
-332,475	-4,523	0,079	0,039
-331,460	-98,135	-0,088	-0,016
-330,445	224,159	0,082	0,096
-329,431	95,397	0,009	0,007
-328,416	-200,000	-0,007	0,137
-327,402	-48,726	-0,083	0,029
-326,387	531,961	0,025	-0,043
-325,372	-107,435	-0,033	-0,005
-324,358	153,340	0,035	0,035
-323,343	-200,000	-0,016	-0,056
-322,329	800,000	0,031	0,086
-321,314	584,802	0,067	0,119
-320,299	-21,499	0,119	0,053
-319,285	95,477	-0,007	0,005
-318,270	7,579	0,002	-0,001
-317,256	-200,000	0,008	0,034
-316,241	-21,301	-0,048	0,021
-315,226	-110,808	0,063	0,009
-314,212	-163,666	-0,041	-0,001
-313,197	-200,000	0,030	0,128
-312,183	-200,000	-0,001	0,038
-311,168	-27,074	-0,186	0,078
-310,153	403,143	-0,082	0,125
-309,139	256,744	0,077	-0,096
-308,124	124,864	-0,039	-0,036
-307,110	800,000	-0,016	0,049
-306,095	191,082	0,035	0,038
-305,080	-200,000	-0,022	0,095
-304,066	-200,000	0,021	-0,099
-303,051	233,914	0,080	-0,096
-302,037	-200,000	-0,010	-0,063
-301,022	334,689	0,029	0,041
-300,008	438,702	0,033	-0,052
-298,993	133,610	0,117	0,110
-297,978	134,808	-0,021	-0,020
-296,964	800,000	0,028	-0,063
-295,949	139,214	-0,063	-0,060
-294,935	84,827	0,081	-0,065
-293,920	-41,472	0,030	-0,011
-292,905	152,102	0,076	0,075
-291,891	109,529	0,088	-0,076
-290,876	19,010	0,062	0,036
-289,862	800,000	-0,022	0,051
-288,847	-110,612	-0,183	-0,027
-287,832	-200,000	-0,031	0,110
-286,818	-200,000	0,023	0,133
-285,803	613,189	0,079	0,145
-284,789	-136,290	0,136	-0,011
-283,774	-200,000	0,018	0,196
-282,759	-39,750	-0,066	-0,025
-281,745	-42,098	-0,189	0,069
-280,730	-200,000	-0,011	-0,095
-279,716	48,359	0,118	0,080
-278,701	247,290	-0,036	-0,044
-277,686	-15,289	0,096	-0,044
-276,672	112,379	-0,075	0,065
-275,657	-129,127	-0,094	0,009
-274,643	126,625	0,097	-0,089
-273,628	320,431	0,031	0,043
-272,613	-5,855	-0,031	-0,015
-271,599	36,885	0,114	0,072
-270,584	-79,287	0,088	0,021
-269,570	800,000	-0,045	-0,098
-268,555	294,768	-0,017	-0,023
-267,540	9,217	0,113	-0,062
-266,526	-166,565	0,048	0,001
-265,511	-200,000	-0,000	0,080
-264,497	-82,954	-0,033	-0,008
-263,482	-200,000	-0,011	0,037
-262,467	178,043	-0,111	0,117
-261,453	-93,568	0,054	0,011
-260,438	800,000	0,041	-0,127
-259,424	657,199	-0,032	0,060
-258,409	-71,148	-0,071	0,019
-257,395	-121,843	0,062	0,007
-256,380	-64,175	-0,044	0,013
-255,365	-89,809	0,106	0,022
-254,351	-200,000	0,020	-0,105
-253,336	147,603	0,058	-0,056
-252,322	393,645	0,061	-0,092
-251,307	-85,473	-0,123	0,027
-250,292	-200,000	0,005	0,025
-249,278	58,867	0,034	-0,024
-248,263	44,887	0,161	0,107
-247,249	-162,509	-0,033	-0,001
-246,234	41,683	0,085	-0,055
-245,219	412,418	0,031	-0,048
-244,205	-57,167	-0,102	0,032
-243,190	800,000	0,080	-0,169
-242,176	-200,000	0,014	-0,074
-241,161	-200,000	-0,004	0,071
-240,146	-77,111	0,086	0,021
-239,132	800,000	-0,003	-0,008
-238,117	-200,000	-0,015	0,104
-237,103	-79,923	0,083	-0,020
-236,088	-200,000	0,017	0,077
-235,073	128,196	0,031	0,029
-234,059	-87,948	-0,031	0,007
-233,044	-30,236	0,046	-0,019
-232,030	8,879	-0,094	-0,051
-231,015	9,382	-0,011	-0,006
-230,000	800,000	-0,023	0,060
-228,986	378,413	-0,056	-0,083
-227,971	800,000	0,062	0,147
-226,957	-200,000	-0,008	0,086
-225,942	-152,702	-0,143	-0,007
-224,927	-129,555	-0,059	0,006
-223,913	160,725	0,057	0,058
-222,898	36,714	-0,021	0,013
-221,884	-113,273	-0,139	-0,020
-220,869	-200,000	0,000	-0,049
-219,855	503,811	0,040	-0,068
-218,840	-107,748	-0,076	0,012
-217,825	25,349	-0,109	0,065
-216,811	8,817	0,061	-0,033
-215,796	-200,000	0,001	-0,020
-214,782	67,605	0,083	-0,061
-213,767	800,000	0,038	0,104
-212,752	61,553	0,092	0,066
-211,738	-200,000	-0,003	-0,089
-210,723	800,000	0,068	-0,155
-209,709	-126,206	-0,153	-0,016
-208,694	-17,166	0,024	-0,011
-207,679	-116,271	-0,092	0,012
-206,665	687,027	-0,014	-0,027
-205,650	720,023	-0,055	0,106
-204,636	340,023	-0,027	-0,038
-203,621	-171,554	0,069	-0,002
-202,606	800,000	-0,062	-0,136
-201,592	-200,000	-0,030	-0,110
-200,577	121,799	0,108	0,097
-199,563	-61,904	0,026	0,008
-198,548	203,024	0,086	-0,096
-197,533	347,211	-0,078	-0,111
-196,519	-91,048	0,118	0,024
-195,504	572,999	0,036	-0,063
-194,490	-89,955	0,110	0,023
-193,475	-200,000	-0,009	-0,119
-192,460	-33,319	-0,063	0,025
-191,446	800,000	0,044	0,088
-190,431	48,828	-0,039	0,026
-189,417	24,893	-0,024	-0,014
-188,402	-113,234	-0,119	0,017
-187,387	800,000	0,038	-0,122
-186,373	36,356	-0,117	-0,074
-185,358	613,200	0,036	-0,064
-184,344	621,067	0,050	-0,090
-183,329	370,866	0,008	0,012
-182,315	87,714	-0,087	0,070
-181,300	-200,000	-0,008	0,036
-180,285	125,643	-0,090	-0,082
-179,271	-200,000	-0,008	-0,065
-178,256	-200,000	0,008	0,087
-177,242	223,633	-0,046	-0,054
-176,227	68,962	-0,038	0,028
-175,212	385,065	0,056	0,083
-174,198	38,450	-0,060	0,038
-173,183	-200,000	0,010	0,064
-172,169	-33,588	-0,116	-0,046
-171,154	81,290	-0,035	0,027
-170,139	-2,920	0,064	0,032
-169,125	-40,834	-0,148	-0,055
-168,110	-62,100	0,059	0,018
-167,096	-200,000	-0,013	0,057
-166,081	-200,000	0,001	0,106
-165,066	-200,000	-0,000	0,096
-164,052	-69,984	0,139	-0,038
-163,037	9,967	0,110	-0,060
-162,023	-37,779	0,004	0,001
-161,008	-64,373	-0,088	-0,025
-159,993	128,134	0,072	-0,066
-158,979	-200,000	-0,031	-0,110
-157,964	69,904	-0,068	-0,050
-156,950	-200,000	0,019	-0,099
-155,935	-200,000	0,017	-0,077
-154,920	800,000	0,034	0,102
-153,906	-200,000	-0,012	0,043
-152,891	-101,205	-0,131	-0,023
-151,877	282,364	0,054	-0,070
-150,862	-136,043	-0,159	-0,013
-149,847	84,540	-0,080	0,063
-148,833	-200,000	0,024	-0,184
-147,818	-107,555	0,063	-0,010
-146,804	-52,972	0,028	0,009
-145,789	127,224	0,064	-0,059
-144,775	800,000	0,046	0,098
-143,760	-193,895	0,108	-0,001
-142,745	800,000	-0,062	-0,127
-141,731	87,667	0,058	0,046
-140,716	25,572	-0,112	-0,067
-139,702	-41,162	0,037	0,014
-138,687	315,587	-0,033	-0,045
-137,672	-200,000	-0,001	-0,050
-136,658	800,000	0,041	-0,090
-135,643	54,940	-0,120	-0,084
-134,629	212,450	0,117	-0,133
-133,614	-96,026	0,129	0,024
-132,599	-200,000	-0,009	0,112
-131,585	4,669	0,093	0,049
-130,570	-200,000	0,013	0,104
-129,556	-39,286	-0,169	0,064
-128,541	399,957	-0,009	-0,013
-127,526	641,391	-0,085	-0,156
-126,512	564,047	-0,074	0,130
-125,497	83,113	-0,061	-0,048
-124,483	-130,801	0,079	-0,008
-123,468	53,233	-0,053	0,037
-122,453	170,969	0,050	0,051
-121,439	429,824	-0,064	0,100
-120,424	-84,101	-0,126	0,029
-119,410	800,000	-0,022	-0,047
-118,395	-200,000	-0,007	-0,025
-117,380	-142,045	-0,063	-0,004
-116,366	-46,061	-0,028	0,010
-115,351	367,167	-0,022	-0,032
-114,337	800,000	0,050	-0,125
-113,322	-17,070	-0,119	0,054
-112,307	-200,000	-0,034	0,168
-111,293	-43,464	-0,036	0,013
-110,278	265,385	0,045	-0,056
-109,264	800,000	-0,019	0,050
-108,249	-200,000	-0,010	0,071
-107,234	233,490	-0,063	-0,074
-106,220	800,000	0,032	-0,097
-105,205	-166,905	0,057	0,002
-104,191	-200,000	0,029	-0,161
-103,176	380,365	-0,027	-0,039
-102,162	800,000	0,045	-0,137
-101,147	-77,813	-0,119	-0,029
-100,132	800,000	-0,070	0,155
-99,118	-48,214	-0,088	0,030
-98,103	-46,191	-0,048	-0,017
-97,089	800,000	-0,039	0,097
-96,074	198,457	0,048	0,053
-95,059	99,719	0,064	0,053
-94,045	239,979	-0,062	0,075
-93,030	159,699	-0,081	0,081
-92,016	-163,356	0,142	0,005
-91,001	175,628	0,125	-0,130
-89,986	166,209	0,088	0,090
-88,972	-200,000	-0,009	-0,030
-87,957	188,074	0,063	-0,068
-86,943	-200,000	-0,012	0,103
-85,928	452,905	-0,017	0,027
-84,913	-200,000	-0,005	0,145
-83,899	-200,000	0,001	-0,007
-82,884	-200,000	0,008	-0,116
-81,870	130,389	-0,040	0,037
-80,855	-200,000	-0,031	0,118
-79,840	-111,434	-0,159	0,023
-78,826	-54,749	0,099	0,032
-77,811	-72,878	-0,140	0,037
-76,797	-61,969	-0,035	-0,010
-75,782	25,215	-0,120	-0,071
-74,767	77,217	-0,083	0,064
-73,753	-27,247	-0,051	-0,021
-72,738	24,708	-0,054	0,032
-71,724	-200,000	-0,001	-0,005
-70,709	-200,000	0,004	-0,119
-69,694	-200,000	-0,001	0,043
-68,680	280,524	-0,061	-0,078
-67,665	-200,000	-0,001	0,108
-66,651	-92,172	0,093	-0,019
-65,636	170,458	0,033	-0,034
-64,622	190,540	0,055	0,060
-63,607	-200,000	-0,004	-0,052
-62,592	-200,000	-0,008	-0,036
-61,578	-200,000	0,006	-0,028
-60,563	-200,000	0,014	0,064
-59,549	215,563	-0,130	0,148
-58,534	16,721	-2,207	-1,249
-57,519	-200,000	-0,127	-0,763
-56,505	-200,000	-1,350	-5,009
-55,490	100,126	0,816	0,678
-54,476	800,000	5,211	12,108
-53,461	-200,000	18,731	315,544
-52,446	800,000	741,216	2329,091
-51,432	557,812	1657,194	2877,466
-50,417	111,013	1640,805	1416,578
-49,403	75,398	1290,771	975,780
-48,388	30,391	1031,526	630,580
-47,373	20,013	993,706	573,081
-46,359	17,546	981,605	557,959
-45,344	14,211	977,702	544,753
-44,330	14,517	976,155	544,876
-43,315	13,916	974,268	541,829
-42,300	13,799	973,284	540,875
-41,286	13,850	972,278	540,461
-40,271	13,824	971,393	539,865
-39,257	13,896	970,437	539,547
-38,242	13,898	969,510	539,016
-37,227	13,901	968,567	538,480
-36,213	13,835	967,857	537,849
-35,198	13,862	966,927	537,399
-34,184	13,912	966,096	537,079
-33,169	13,838	965,291	536,368
-32,154	13,898	964,114	535,887
-31,140	13,816	963,490	535,255
-30,125	13,853	962,705	534,915
-29,111	13,792	961,783	534,186
-28,096	13,852	961,273	534,076
-27,082	13,838	960,551	533,609
-26,067	13,860	959,749	533,212
-25,052	13,893	958,995	532,878
-24,038	13,843	958,320	532,322
-23,023	13,756	957,910	531,792
-22,009	13,862	957,050	531,635
-20,994	13,895	956,512	531,423
-19,979	13,884	955,753	530,945
-18,965	13,845	955,146	530,458
-17,950	13,841	954,578	530,108
-16,936	13,792	953,999	529,609
-15,921	13,862	953,116	529,322
-14,906	13,720	952,612	528,569
-13,892	13,714	951,872	528,116
-12,877	13,716	951,177	527,717
-11,863	13,688	950,604	527,289
-10,848	13,761	949,890	527,103
-9,833	13,825	949,673	527,167
-8,819	13,814	948,870	526,666
-7,804	13,770	948,212	526,138
-6,790	13,690	947,945	525,714
-5,775	13,759	947,129	525,461
-4,760	13,785	946,437	525,139
-3,746	13,796	945,875	524,843
-2,731	13,630	945,262	523,952
-1,717	13,536	944,642	523,289
-0,702	13,502	943,843	522,718
0,313	13,381	943,082	522,703
1,327	16,565	940,918	531,535
2,342	25,327	795,572	472,705
3,356	21,589	460,354	267,764
4,371	-5,057	317,376	155,986
5,386	-8,838	299,371	143,257
6,400	-10,807	293,070	138,256
7,415	-11,133	290,629	136,767
8,429	-11,396	289,196	135,820
9,444	-11,474	288,273	135,299
10,459	-11,417	287,656	135,053
11,473	-11,364	287,020	134,794
12,488	-11,303	286,463	134,581
13,502	-11,473	285,866	134,122
14,517	-11,458	285,524	133,964
15,531	-11,469	285,091	133,738
16,546	-11,374	284,829	133,696
17,561	-11,459	284,332	133,368
18,575	-11,409	283,861	133,184
19,590	-11,264	283,511	133,148
20,604	-11,186	283,299	133,112
21,619	-11,491	282,816	132,579
22,634	-11,446	282,496	132,460
23,648	-11,301	282,231	132,464
24,663	-11,277	281,908	132,324
25,677	-11,429	281,730	132,082
26,692	-11,422	281,488	131,964
27,707	-11,330	281,118	131,867
28,721	-11,386	280,883	131,691
29,736	-11,183	280,581	131,732
30,750	-11,353	280,196	131,377
31,765	-11,588	280,184	131,134
32,780	-11,431	279,912	131,146
33,794	-11,382	279,580	131,025
34,809	-11,418	279,314	130,855
35,823	-11,375	279,071	130,770
36,838	-11,386	278,748	130,597
37,853	-11,542	278,424	130,286
38,867	-11,419	278,401	130,380
39,882	-11,591	278,217	130,119
40,896	-11,443	277,798	130,051
41,911	-11,546	277,656	129,875
42,926	-11,503	277,254	129,717
43,940	-11,416	277,054	129,693
44,955	-11,280	276,616	129,605
45,969	-11,644	276,668	129,274
46,984	-11,678	276,330	129,073
47,999	-11,811	276,074	128,817
49,013	-11,773	275,627	128,632
50,028	-11,986	275,474	128,350
51,042	-12,193	275,362	128,092
52,057	-12,281	275,122	127,886
53,071	-12,063	274,773	127,917
54,086	-11,867	274,661	128,036
55,101	-11,906	274,515	127,921
56,115	-11,709	274,364	128,024
57,130	-11,419	274,112	128,165
58,144	-11,236	273,938	128,243
59,159	-11,373	273,679	127,983
60,174	-11,338	273,425	127,885
61,188	-11,147	273,209	127,951
62,203	-11,313	273,014	127,693
63,217	-11,311	272,883	127,623
64,232	-11,217	272,579	127,556
65,247	-11,206	272,267	127,409
66,261	-11,412	272,135	127,145
67,276	-11,375	271,754	126,990
68,290	-11,576	271,606	126,723
69,305	-11,813	271,349	126,373
70,320	-11,671	271,279	126,460
71,334	-11,411	270,908	126,516
72,349	-11,309	270,736	126,518
73,363	-11,378	270,496	126,331
74,378	-11,391	270,494	126,307
75,393	-11,255	269,993	126,187
76,407	-11,335	269,908	126,063
77,422	-11,314	269,748	125,996
78,436	-11,448	269,614	125,799
79,451	-11,378	269,222	125,669
80,466	-11,284	268,990	125,636
81,480	-11,249	268,703	125,522
82,495	-11,583	268,548	125,134
83,509	-11,417	268,440	125,224
84,524	-11,527	268,160	124,982
85,539	-11,573	267,919	124,817
86,553	-11,558	267,754	124,742
87,568	-11,610	267,548	124,588
88,582	-11,605	267,290	124,461
89,597	-11,570	267,127	124,406
90,611	-11,561	266,987	124,338
91,626	-11,341	266,811	124,445
92,641	-11,274	266,644	124,416
93,655	-11,369	266,371	124,191
94,670	-11,406	266,018	123,982
95,684	-11,449	265,927	123,890
96,699	-11,406	265,644	123,786
97,714	-11,370	265,445	123,715
98,728	-11,426	265,250	123,563
99,743	-11,648	265,138	123,300
100,757	-11,696	264,892	123,130
101,772	-11,560	264,583	123,098
102,787	-11,481	264,409	123,077
103,801	-11,250	264,163	123,159
104,816	-11,272	264,183	123,138
105,830	-11,279	264,042	123,054
106,845	-11,149	263,688	122,994
107,860	-11,465	263,602	122,661
108,874	-11,297	263,306	122,662
109,889	-11,407	263,151	122,481
110,903	-11,499	262,915	122,278
111,918	-11,258	262,834	122,445
112,933	-11,355	262,360	122,126
113,947	-11,297	262,453	122,210
114,962	-11,342	262,281	122,080
115,976	-11,075	261,849	122,105
116,991	-11,331	261,804	121,845
118,006	-11,376	261,626	121,711
119,020	-11,081	261,424	121,869
120,035	-11,273	261,377	121,666
121,049	-11,242	261,112	121,558
122,064	-11,212	260,819	121,438
123,079	-11,538	260,818	121,138
124,093	-11,457	260,515	121,059
125,108	-11,526	260,265	120,871
126,122	-11,731	259,977	120,546
127,137	-11,690	259,691	120,438
128,151	-11,665	259,595	120,405
129,166	-11,720	259,488	120,297
130,181	-11,693	259,090	120,125
131,195	-11,586	258,916	120,128
132,210	-11,422	258,746	120,181
133,224	-11,309	258,583	120,193
134,239	-11,340	258,594	120,161
135,254	-11,318	258,333	120,048
136,268	-11,447	258,046	119,792
137,283	-11,659	257,961	119,556
138,297	-11,621	257,484	119,358
139,312	-11,682	257,370	119,241
140,327	-11,374	257,242	119,439
141,341	-11,275	257,116	119,456
142,356	-11,191	256,994	119,462
143,370	-11,298	256,845	119,289
144,385	-11,277	256,620	119,192
145,400	-11,241	256,461	119,139
146,414	-11,123	256,211	119,115
147,429	-11,013	255,916	119,062
148,443	-11,166	256,018	118,966
149,458	-11,078	255,654	118,862
150,473	-11,147	255,664	118,797
151,487	-11,286	255,264	118,481
152,502	-11,210	255,161	118,487
153,516	-11,282	254,984	118,332
154,531	-11,213	254,796	118,295
155,546	-11,218	254,682	118,227
156,560	-11,225	254,436	118,096
157,575	-11,214	254,100	117,939
158,589	-11,241	253,895	117,810
159,604	-11,184	253,854	117,830
160,619	-11,097	253,620	117,785
161,633	-11,189	253,307	117,551
162,648	-11,329	253,373	117,451
163,662	-11,232	253,316	117,497
164,677	-11,284	253,256	117,414
165,692	-11,077	252,827	117,381
166,706	-11,046	252,716	117,346
167,721	-11,009	252,485	117,260
168,735	-11,121	252,229	117,035
169,750	-11,012	252,281	117,141
170,764	-11,082	252,101	116,988
171,779	-11,061	251,786	116,849
172,794	-11,031	251,650	116,801
173,808	-11,140	251,383	116,574
174,823	-11,506	251,052	116,100
175,837	-11,742	251,010	115,871
176,852	-11,266	250,840	116,185
177,867	-11,018	250,763	116,348
178,881	-11,063	250,750	116,294
179,896	-11,021	250,426	116,169
180,910	-10,990	250,143	116,054
181,925	-11,155	250,130	115,897
182,940	-11,158	249,902	115,779
183,954	-11,254	249,710	115,599
184,969	-10,994	249,485	115,703
185,983	-11,092	249,414	115,578
186,998	-11,091	249,161	115,451
188,013	-10,949	249,005	115,487
189,027	-11,023	248,908	115,370
190,042	-11,059	248,684	115,226
191,056	-11,071	248,520	115,129
192,071	-11,079	248,229	114,978
193,086	-11,224	248,296	114,878
194,100	-11,225	247,952	114,707
195,115	-11,220	247,829	114,645
196,129	-11,093	247,700	114,680
197,144	-11,117	247,353	114,489
198,159	-10,968	247,109	114,490
199,173	-11,106	247,044	114,335
200,188	-11,156	246,910	114,222
201,202	-11,482	246,709	113,847
202,217	-11,566	246,358	113,606
203,232	-11,527	246,219	113,564
204,246	-11,074	246,166	113,904
205,261	-11,007	245,923	113,837
206,275	-12,019	245,550	112,818
207,290	-8,442	247,036	116,461
208,304	-0,183	249,792	124,664
209,319	4,140	250,979	128,867
210,334	4,714	250,920	129,305
211,348	4,895	250,846	129,407
212,363	5,031	250,785	129,478
213,377	5,165	250,620	129,492
214,392	4,991	250,409	129,227
215,407	4,819	250,262	128,996
216,421	4,939	249,948	128,923
217,436	5,108	250,162	129,162
218,450	5,354	249,645	129,088
219,465	4,765	249,528	128,527
220,480	4,706	249,359	128,380
221,494	4,664	249,160	128,231
222,509	4,602	249,025	128,099
223,523	4,514	248,849	127,924
224,538	4,240	248,555	127,535
225,553	4,365	248,517	127,607
226,567	4,531	248,371	127,658
227,582	4,516	248,133	127,512
228,596	4,595	247,993	127,494
229,611	4,436	247,664	127,182
230,626	4,309	247,419	126,940
231,640	4,313	247,344	126,894
232,655	4,237	247,336	126,816
233,669	4,453	247,048	126,834
234,684	4,191	246,797	126,480
235,699	4,595	246,887	126,846
236,713	4,664	246,695	126,793
237,728	4,436	246,451	126,469
238,742	4,230	246,218	126,170
239,757	4,107	245,983	125,938
240,772	4,059	245,869	125,829
241,786	4,317	245,939	126,064
242,801	4,149	245,600	125,742
243,815	4,183	245,446	125,679
244,830	4,418	245,388	125,830
245,844	4,418	245,226	125,736
246,859	4,469	244,954	125,627
247,874	4,229	244,863	125,374
248,888	4,377	244,636	125,367
249,903	4,448	244,521	125,354
250,917	4,558	244,429	125,385
251,932	4,653	244,277	125,373
252,947	4,531	244,080	125,162
253,961	4,345	244,004	124,961
254,976	4,492	243,793	124,960
255,990	4,615	243,700	125,002
257,005	4,219	243,485	124,560
258,020	4,211	243,230	124,412
259,034	3,931	243,147	124,132
260,049	4,331	242,996	124,367
261,063	4,295	242,670	124,160
262,078	4,242	242,513	124,026
263,093	4,428	242,590	124,204
264,107	4,345	242,446	124,052
265,122	4,303	242,235	123,900
266,136	4,448	242,127	123,949
267,151	4,847	241,911	124,148
268,166	4,336	241,709	123,624
269,180	4,242	241,534	123,448
270,195	4,706	241,520	123,802
271,209	5,030	241,393	123,984
272,224	4,474	241,061	123,359
273,239	3,933	240,877	122,822
274,253	4,142	240,743	122,909
275,268	4,204	240,682	122,916
276,282	4,520	240,481	123,055
277,297	4,379	240,262	122,820
278,312	4,184	240,141	122,592
279,326	4,393	240,072	122,711
280,341	4,588	239,858	122,747
281,355	4,211	239,947	122,481
282,370	4,518	239,669	122,572
283,384	4,398	239,506	122,383
284,399	4,126	239,244	122,022
285,414	3,971	239,068	121,799
286,428	4,221	238,972	121,937
287,443	4,302	238,727	121,865
288,457	4,310	238,728	121,861
289,472	4,446	238,578	121,881
290,487	4,524	238,304	121,791
291,501	4,398	238,161	121,608
292,516	4,138	238,016	121,319
293,530	4,108	237,829	121,189
294,545	4,537	237,772	121,487
295,560	4,331	237,626	121,239
296,574	4,060	237,440	120,921
297,589	4,155	237,340	120,934
298,603	4,378	237,232	121,042
299,618	4,632	236,995	121,110
300,633	4,388	236,875	120,846
301,647	4,474	236,645	120,786
302,662	4,863	236,725	121,121
303,676	4,891	236,493	121,013
304,691	4,690	236,275	120,734
305,706	4,783	236,323	120,820
306,720	4,612	236,037	120,529
307,735	4,858	235,823	120,601
308,749	4,430	235,726	120,207
309,764	4,281	235,457	119,944
310,779	4,124	235,370	119,767
311,793	3,974	235,004	119,454
312,808	4,076	234,991	119,515
313,822	4,070	234,751	119,377
314,837	4,244	234,670	119,460
315,852	3,786	234,536	119,027
316,866	4,100	234,328	119,154
317,881	4,256	234,209	119,203
318,895	4,157	234,068	119,045
319,910	4,576	234,189	119,419
320,925	4,408	233,911	119,137
321,939	4,374	233,725	119,006
322,954	4,634	233,576	119,120
323,968	4,410	233,626	118,962
324,983	4,371	233,400	118,806
325,997	4,772	233,217	119,011
327,012	4,615	233,184	118,862
328,027	4,506	232,864	118,605
329,041	4,955	232,798	118,906
330,056	5,095	232,891	119,050
331,070	5,254	232,592	119,008
332,085	4,720	232,424	118,503
333,100	4,281	232,343	118,115
334,114	4,528	231,971	118,104
335,129	4,717	231,921	118,212
336,143	4,811	231,859	118,242
337,158	4,678	231,619	118,008
338,173	4,630	231,441	117,870
339,187	4,259	231,254	117,481
340,202	4,718	231,136	117,760
341,216	4,557	231,050	117,583
342,231	4,526	230,766	117,405
343,246	4,677	230,658	117,455
344,260	4,786	230,537	117,465
345,275	4,646	230,534	117,347
346,289	4,637	230,415	117,269
347,304	4,841	230,198	117,303
348,319	4,908	230,009	117,246
349,333	4,664	229,815	116,953
350,348	4,442	229,589	116,659
351,362	4,555	229,528	116,703
352,377	4,012	229,372	116,204
353,392	4,054	229,064	116,069
354,406	4,075	229,083	116,084
355,421	194,462	1320,808	1393,087
356,435	155,930	1453,788	1393,054
