DTS Sentinel unit serial number:	SN410029Multiplexer serial number:	ORYXHardware model number:	OX2-SRSoftware version number:	ORYX F/W v4,00 Oryx Data Collector v3.7.2.0data status	okinstallation	B5 Nyhavnadifferential loss correction	single-endedforward channel	channel 2reverse channel	N/Adate	2023/12/13time	15:32:13forward acquisition time	300,00reverse acquisition time	0,00gamma	499,1914k internal	0,3160k external	0,3160temperature offset calibration	1,0000default loss term (dB/km)	0,3820temperature slope calibration	1,0000multiplexer offset coefficient	1,0000multiplexer slope coefficient	1,0000fibre end	0,00T internal ref (°C)	14,97T ext. ref 1 (°C)	-1,42T ext. ref 2 (°C)	-1,74length (m)	temperature (°C)	Stokes	anti-Stokes-744,400	-38,757	0,077	0,030
-743,385	33,233	-0,231	0,147
-742,371	-63,523	0,211	-0,063
-741,356	-114,469	-0,189	0,026
-740,342	-105,684	0,117	-0,019
-739,327	-125,359	-0,303	-0,034
-738,312	-107,903	0,048	0,008
-737,298	-48,405	-0,307	0,108
-736,283	-147,680	0,081	-0,005
-735,269	-100,989	-0,374	0,067
-734,254	180,585	0,101	0,110
-733,239	-123,952	-0,411	-0,047
-732,225	24,691	0,127	0,077
-731,210	800,000	-0,033	-0,082
-730,196	-23,852	0,039	-0,017
-729,181	-200,000	0,017	-0,102
-728,167	84,488	0,111	-0,089
-727,152	-184,159	-0,079	-0,001
-726,137	-173,669	-0,041	0,001
-725,123	-200,000	-0,008	0,057
-724,108	-11,361	-0,049	-0,024
-723,094	-200,000	0,007	-0,039
-722,079	732,382	-0,004	0,009
-721,064	221,439	-0,020	-0,024
-720,050	39,926	0,014	-0,009
-719,035	48,501	0,043	-0,030
-718,021	-73,667	0,015	0,004
-717,006	120,813	0,019	-0,017
-715,991	40,165	-0,092	-0,061
-714,977	520,799	-0,071	-0,123
-713,962	-200,000	0,034	0,128
-712,948	-103,362	0,088	-0,015
-711,933	-27,252	0,167	-0,071
-710,918	-159,909	-0,024	-0,001
-709,904	-200,000	-0,001	0,023
-708,889	412,513	-0,035	0,054
-707,875	-66,370	0,073	0,021
-706,860	-82,787	0,164	0,039
-705,845	69,450	0,054	0,041
-704,831	-200,000	-0,024	-0,123
-703,816	114,903	0,068	0,061
-702,802	63,158	-0,024	-0,018
-701,787	-200,000	-0,109	0,000
-700,772	489,222	0,067	-0,114
-699,758	-169,820	-0,055	0,001
-698,743	-165,061	0,065	0,002
-697,729	121,365	-0,013	0,012
-696,714	-12,140	0,132	0,063
-695,699	24,087	0,134	-0,081
-694,685	-146,434	-0,041	-0,003
-693,670	-200,000	-0,027	-0,126
-692,656	-200,000	-0,003	0,069
-691,641	-71,899	0,085	-0,023
-690,627	301,093	-0,038	-0,052
-689,612	-42,916	-0,132	0,049
-688,597	156,376	-0,135	-0,137
-687,583	164,823	-0,050	-0,052
-686,568	-200,000	-0,024	-0,109
-685,554	325,154	-0,015	-0,021
-684,539	157,300	-0,075	-0,076
-683,524	53,186	0,061	0,043
-682,510	-50,461	-0,097	0,034
-681,495	323,059	-0,040	0,056
-680,481	-187,394	-0,165	-0,002
-679,466	-65,658	-0,045	-0,013
-678,451	-28,606	0,012	-0,005
-677,437	-200,000	0,013	-0,066
-676,422	800,000	-0,033	0,070
-675,408	67,496	0,124	0,093
-674,393	-77,150	-0,036	-0,009
-673,378	-120,040	0,103	-0,013
-672,364	163,770	-0,094	-0,097
-671,349	63,777	0,090	-0,067
-670,335	-5,174	0,016	0,008
-669,320	399,349	0,117	0,181
-668,305	208,173	-0,065	0,075
-667,291	-100,733	0,079	0,014
-666,276	800,000	-0,013	0,028
-665,262	-200,000	-0,002	-0,018
-664,247	-36,183	0,053	-0,021
-663,232	800,000	0,005	-0,015
-662,218	103,610	0,080	0,069
-661,203	800,000	-0,043	-0,116
-660,189	60,328	-0,061	0,045
-659,174	-27,484	-0,184	-0,078
-658,159	800,000	-0,061	-0,151
-657,145	-141,837	-0,028	-0,002
-656,130	43,525	0,063	-0,042
-655,116	-24,436	0,095	-0,041
-654,101	-200,000	-0,022	0,083
-653,086	-200,000	-0,021	-0,170
-652,072	39,658	-0,079	-0,052
-651,057	-200,000	0,014	-0,093
-650,043	-87,116	-0,072	0,016
-649,028	-63,460	0,105	-0,031
-648,014	-32,708	0,042	-0,017
-646,999	800,000	-0,059	0,143
-645,984	-120,833	0,174	0,021
-644,970	-198,304	0,059	0,000
-643,955	-37,872	-0,112	0,043
-642,941	-90,603	-0,155	0,033
-641,926	-151,015	0,028	0,002
-640,911	-77,828	0,054	-0,014
-639,897	800,000	0,013	-0,041
-638,882	492,333	0,063	-0,106
-637,868	-37,642	-0,093	0,036
-636,853	-66,366	-0,100	-0,029
-635,838	-55,907	-0,062	0,020
-634,824	-83,089	-0,096	0,023
-633,809	446,184	0,123	-0,199
-632,795	516,256	0,052	0,089
-631,780	-92,427	-0,071	0,014
-630,765	800,000	-0,018	-0,052
-629,751	-200,000	-0,018	-0,097
-628,736	-51,201	0,097	-0,033
-627,722	161,925	0,065	0,066
-626,707	121,004	-0,056	-0,051
-625,692	580,835	0,046	-0,082
-624,678	-38,544	0,066	-0,026
-623,663	-150,194	-0,071	-0,004
-622,649	311,717	-0,022	-0,031
-621,634	-24,716	-0,061	-0,026
-620,619	-200,000	0,009	-0,068
-619,605	-200,000	-0,008	-0,066
-618,590	120,069	0,019	-0,018
-617,576	236,735	0,053	0,064
-616,561	-49,830	0,134	0,046
-615,546	-200,000	-0,034	-0,193
-614,532	-200,000	-0,006	-0,072
-613,517	800,000	-0,044	-0,131
-612,503	-200,000	0,003	-0,092
-611,488	-111,166	0,078	-0,012
-610,474	-22,757	-0,020	0,009
-609,459	800,000	-0,040	0,125
-608,444	-200,000	-0,014	0,083
-607,430	800,000	-0,012	-0,031
-606,415	-15,740	0,047	0,022
-605,401	430,333	-0,011	-0,017
-604,386	72,183	-0,054	0,041
-603,371	145,299	-0,099	0,098
-602,357	-200,000	-0,008	0,052
-601,342	800,000	0,042	-0,101
-600,328	-200,000	-0,005	0,024
-599,313	-77,718	-0,189	-0,048
-598,298	414,317	-0,049	0,076
-597,284	-200,000	-0,011	0,065
-596,269	-127,711	-0,028	-0,003
-595,255	-85,236	-0,049	-0,011
-594,240	-92,735	-0,073	0,015
-593,225	40,609	0,024	0,016
-592,211	-135,849	0,136	-0,012
-591,196	269,557	-0,056	0,072
-590,182	800,000	0,041	0,116
-589,167	346,534	-0,040	0,058
-588,152	-200,000	0,000	0,122
-587,138	739,030	-0,052	-0,102
-586,123	-200,000	0,053	-0,181
-585,109	54,768	-0,123	-0,087
-584,094	-200,000	0,029	0,119
-583,079	-112,644	0,135	0,019
-582,065	406,678	-0,114	0,178
-581,050	91,050	0,135	0,111
-580,036	-65,936	-0,042	-0,012
-579,021	170,411	0,045	-0,047
-578,006	97,444	-0,080	-0,067
-576,992	702,390	0,025	-0,048
-575,977	-200,000	-0,030	-0,139
-574,963	-40,924	0,083	0,031
-573,948	742,786	-0,051	0,101
-572,934	449,261	0,088	0,143
-571,919	-74,120	-0,068	-0,018
-570,904	44,922	0,019	-0,013
-569,890	-200,000	-0,013	-0,048
-568,875	124,843	-0,033	-0,030
-567,861	-200,000	0,020	0,071
-566,846	332,031	0,038	-0,054
-565,831	107,071	-0,088	0,077
-564,817	98,139	-0,058	0,049
-563,802	800,000	0,049	-0,145
-562,788	-55,957	-0,061	-0,020
-561,773	431,989	0,087	0,139
-560,758	800,000	-0,021	0,054
-559,744	94,373	-0,139	0,115
-558,729	299,800	0,094	0,127
-557,715	195,404	-0,018	0,020
-556,700	-200,000	-0,005	-0,022
-555,685	448,931	-0,053	-0,086
-554,671	44,446	-0,100	0,067
-553,656	800,000	0,059	0,123
-552,642	-60,053	0,178	-0,055
-551,627	-0,062	0,115	0,060
-550,612	107,082	-0,061	-0,053
-549,598	-200,000	0,024	-0,115
-548,583	220,181	-0,078	-0,091
-547,569	-83,467	-0,110	0,026
-546,554	-200,000	-0,039	-0,130
-545,539	574,135	0,041	0,073
-544,525	-10,393	0,110	0,053
-543,510	-200,000	-0,023	-0,081
-542,496	-38,540	-0,161	-0,062
-541,481	456,774	-0,016	-0,026
-540,466	216,230	0,056	-0,065
-539,452	-200,000	0,026	-0,093
-538,437	194,409	0,144	-0,160
-537,423	336,577	0,072	0,102
-536,408	259,338	0,035	0,044
-535,393	-157,333	-0,050	0,002
-534,379	800,000	-0,009	0,021
-533,364	283,094	0,034	0,044
-532,350	-200,000	-0,022	0,110
-531,335	102,031	-0,049	-0,042
-530,321	800,000	0,014	0,043
-529,306	630,279	0,020	-0,038
-528,291	-18,272	-0,052	-0,024
-527,277	-85,367	0,071	0,016
-526,262	312,362	0,029	-0,040
-525,248	-156,157	0,209	-0,009
-524,233	-200,000	-0,002	0,046
-523,218	414,526	0,040	-0,062
-522,204	1,630	0,060	0,032
-521,189	-28,394	-0,088	0,037
-520,175	659,892	-0,027	-0,052
-519,160	297,169	0,036	-0,048
-518,145	-57,665	0,163	0,052
-517,131	-200,000	0,024	-0,112
-516,116	-13,646	0,145	0,068
-515,102	63,840	0,019	-0,014
-514,087	30,952	-0,051	0,032
-513,072	-41,996	-0,071	-0,026
-512,058	11,974	0,089	0,050
-511,043	-95,196	0,064	0,012
-510,029	51,135	-0,117	0,081
-509,014	-133,934	0,141	-0,013
-507,999	76,563	0,113	0,087
-506,985	-200,000	-0,013	-0,094
-505,970	-58,950	0,154	-0,048
-504,956	-45,851	-0,102	-0,037
-503,941	114,145	0,037	-0,033
-502,926	-57,191	0,215	0,069
-501,912	-200,000	-0,042	0,000
-500,897	-13,997	0,031	0,014
-499,883	-68,614	-0,101	-0,028
-498,868	-200,000	-0,007	-0,148
-497,853	460,453	0,013	-0,021
-496,839	800,000	0,030	0,096
-495,824	-200,000	0,019	-0,117
-494,810	-4,176	-0,068	-0,034
-493,795	244,812	-0,061	-0,074
-492,781	164,476	0,058	-0,060
-491,766	61,443	0,029	-0,021
-490,751	28,502	-0,102	-0,063
-489,737	475,088	-0,008	-0,014
-488,722	279,279	-0,067	-0,087
-487,708	800,000	-0,045	0,121
-486,693	79,640	-0,131	0,102
-485,678	-200,000	-0,029	-0,116
-484,664	344,356	0,027	-0,038
-483,649	-200,000	-0,010	0,034
-482,635	354,773	0,073	0,107
-481,620	191,887	0,010	-0,011
-480,605	-200,000	0,022	0,101
-479,591	800,000	-0,020	0,063
-478,576	-73,345	-0,127	-0,034
-477,562	-122,120	0,077	0,009
-476,547	-200,000	-0,037	-0,126
-475,532	125,145	0,038	0,035
-474,518	72,021	0,069	0,052
-473,503	177,693	0,088	0,093
-472,489	-98,971	-0,108	0,020
-471,474	54,036	0,051	-0,036
-470,459	44,084	-0,043	0,029
-469,445	450,482	0,022	-0,035
-468,430	71,550	0,031	-0,024
-467,416	23,503	0,079	-0,047
-466,401	17,489	0,072	0,042
-465,386	-16,398	0,049	0,023
-464,372	-200,000	-0,022	0,075
-463,357	800,000	0,007	-0,020
-462,343	-47,576	-0,045	-0,016
-461,328	31,234	-0,076	0,048
-460,313	60,359	-0,090	-0,065
-459,299	-200,000	0,008	0,112
-458,284	35,917	0,076	-0,048
-457,270	104,248	-0,077	-0,066
-456,255	800,000	-0,034	-0,073
-455,241	130,610	-0,036	0,034
-454,226	-200,000	0,011	-0,069
-453,211	245,908	0,050	0,062
-452,197	-135,434	0,180	0,015
-451,182	323,790	-0,023	-0,032
-450,168	10,775	0,055	-0,031
-449,153	65,920	-0,142	-0,105
-448,138	-155,859	0,012	0,001
-447,124	76,215	-0,069	-0,054
-446,109	-22,490	-0,127	0,056
-445,095	412,551	0,110	0,171
-444,080	43,384	0,046	0,030
-443,065	-182,620	0,094	0,001
-442,051	416,938	0,038	-0,059
-441,036	505,159	-0,013	-0,023
-440,022	-4,845	-0,166	-0,083
-439,007	13,434	-0,011	0,006
-437,992	288,208	-0,124	0,163
-436,978	-200,000	0,042	0,142
-435,963	269,280	0,085	0,109
-434,949	184,611	-0,154	-0,166
-433,934	800,000	0,021	-0,049
-432,919	36,212	0,057	0,037
-431,905	-177,373	0,082	0,001
-430,890	-136,166	0,082	-0,007
-429,876	96,001	0,067	-0,055
-428,861	5,597	-0,057	0,031
-427,846	17,802	0,014	0,008
-426,832	212,537	-0,033	-0,038
-425,817	-200,000	0,021	-0,131
-424,803	-161,539	-0,157	0,006
-423,788	2,706	-0,061	0,032
-422,773	95,873	-0,090	-0,074
-421,759	247,435	-0,067	0,082
-420,744	-114,211	-0,222	0,031
-419,730	741,525	-0,016	-0,031
-418,715	-177,454	0,122	-0,002
-417,701	-47,374	0,063	0,022
-416,686	7,664	0,111	-0,060
-415,671	598,692	0,080	0,145
-414,657	800,000	0,041	0,085
-413,642	800,000	-0,017	0,053
-412,628	-200,000	0,030	-0,119
-411,613	299,465	-0,049	-0,066
-410,598	-45,803	-0,122	0,044
-409,584	92,931	0,053	-0,044
-408,569	-80,025	0,084	0,020
-407,555	-133,380	0,204	-0,018
-406,540	-200,000	-0,033	0,121
-405,525	147,808	-0,030	-0,029
-404,511	194,442	0,042	-0,046
-403,496	-129,256	-0,153	-0,015
-402,482	243,841	0,074	0,091
-401,467	-200,000	0,014	0,064
-400,452	518,380	-0,035	-0,060
-399,438	-63,209	0,048	-0,014
-398,423	800,000	-0,023	-0,057
-397,409	104,183	-0,169	-0,144
-396,394	-200,000	0,012	-0,077
-395,379	-158,801	-0,055	-0,002
-394,365	-118,677	0,072	-0,009
-393,350	178,934	0,102	0,109
-392,336	591,815	-0,040	0,071
-391,321	50,658	0,105	-0,072
-390,306	-200,000	-0,016	0,068
-389,292	302,256	-0,054	-0,073
-388,277	-58,363	0,077	0,024
-387,263	-200,000	0,002	0,115
-386,248	775,674	0,058	0,115
-385,233	-200,000	0,005	0,016
-384,219	198,891	0,071	-0,079
-383,204	-200,000	0,035	-0,195
-382,190	800,000	0,015	0,040
-381,175	-200,000	-0,002	-0,208
-380,160	172,321	0,078	-0,082
-379,146	-8,534	-0,076	-0,037
-378,131	-200,000	-0,006	0,045
-377,117	800,000	-0,015	-0,035
-376,102	177,037	-0,142	-0,150
-375,088	43,895	-0,053	-0,035
-374,073	238,794	-0,102	-0,123
-373,058	4,721	0,059	-0,031
-372,044	-79,799	-0,012	0,003
-371,029	-127,535	0,112	-0,012
-370,015	-77,015	0,095	-0,024
-369,000	-36,512	-0,182	-0,071
-367,985	-200,000	0,003	-0,047
-366,971	224,615	0,078	-0,092
-365,956	390,645	0,029	-0,044
-364,942	800,000	0,038	0,084
-363,927	800,000	-0,028	0,061
-362,912	-200,000	0,012	0,048
-361,898	-200,000	-0,008	0,065
-360,883	-114,241	-0,037	0,005
-359,869	146,980	0,043	0,042
-358,854	-22,064	0,147	0,064
-357,839	57,182	-0,067	0,047
-356,825	607,203	-0,054	0,099
-355,810	-200,000	-0,039	0,138
-354,796	490,356	-0,041	0,068
-353,781	-161,290	-0,129	0,005
-352,766	404,612	-0,018	-0,028
-351,752	644,613	-0,037	0,068
-350,737	-200,000	-0,027	0,203
-349,723	-200,000	-0,027	0,097
-348,708	-200,000	-0,003	-0,011
-347,693	-174,110	-0,082	-0,002
-346,679	566,575	-0,026	-0,045
-345,664	157,372	-0,078	-0,078
-344,650	-34,257	-0,089	-0,035
-343,635	-200,000	-0,017	0,098
-342,620	111,819	0,138	0,121
-341,606	-85,914	0,044	0,010
-340,591	116,096	-0,086	-0,077
-339,577	-2,111	-0,127	-0,065
-338,562	-200,000	0,004	-0,041
-337,548	136,151	-0,056	0,053
-336,533	-200,000	-0,007	0,038
-335,518	-200,000	0,013	0,086
-334,504	-61,836	-0,113	-0,034
-333,489	159,057	0,060	0,061
-332,475	80,676	-0,087	-0,068
-331,460	800,000	0,063	-0,128
-330,445	800,000	-0,035	-0,072
-329,431	-24,765	0,173	0,074
-328,416	-101,164	0,125	-0,022
-327,402	-67,204	0,146	0,041
-326,387	-200,000	0,010	-0,089
-325,372	123,730	0,072	-0,065
-324,358	-33,508	0,025	0,010
-323,343	16,305	-0,088	0,050
-322,329	24,422	0,050	-0,030
-321,314	800,000	-0,009	0,018
-320,299	-200,000	0,012	0,116
-319,285	800,000	-0,051	0,115
-318,270	-200,000	-0,012	0,088
-317,256	-200,000	0,039	-0,162
-316,241	261,936	0,036	0,045
-315,226	-28,766	0,098	-0,041
-314,212	-46,668	-0,098	-0,034
-313,197	-159,376	0,156	0,006
-312,183	-200,000	0,013	-0,072
-311,168	-60,398	-0,126	-0,039
-310,153	-42,162	-0,171	0,063
-309,139	-162,472	-0,156	-0,005
-308,124	-200,000	-0,032	-0,119
-307,110	-104,686	0,022	0,004
-306,095	414,029	0,060	0,093
-305,080	-200,000	0,012	-0,055
-304,066	-56,664	-0,094	0,030
-303,051	800,000	0,025	-0,068
-302,037	-200,000	-0,025	-0,097
-301,022	800,000	0,031	-0,062
-300,008	456,140	0,088	0,142
-298,993	-200,000	-0,004	0,156
-297,978	41,124	-0,017	0,011
-296,964	706,301	-0,036	0,069
-295,949	-84,642	0,122	-0,028
-294,935	800,000	-0,025	-0,075
-293,920	800,000	0,036	0,097
-292,905	-76,942	-0,144	-0,036
-291,891	-105,607	0,083	0,013
-290,876	-200,000	0,004	0,032
-289,862	267,031	0,084	-0,107
-288,847	408,319	0,021	-0,032
-287,832	-200,000	0,016	-0,187
-286,818	-200,000	0,006	0,139
-285,803	-200,000	0,051	0,171
-284,789	-57,148	0,095	0,030
-283,774	800,000	0,055	0,135
-282,759	-200,000	0,007	0,106
-281,745	517,119	-0,043	0,074
-280,730	800,000	-0,032	-0,082
-279,716	-85,219	-0,167	-0,037
-278,701	167,732	0,127	0,131
-277,686	800,000	0,023	0,052
-276,672	-200,000	0,029	0,127
-275,657	800,000	-0,040	-0,112
-274,643	-43,285	-0,167	0,061
-273,628	89,644	0,052	-0,042
-272,613	47,393	0,068	0,046
-271,599	-36,587	-0,123	-0,047
-270,584	-67,124	-0,041	-0,012
-269,570	800,000	0,046	0,096
-268,555	412,345	0,047	-0,072
-267,540	-32,368	-0,068	0,027
-266,526	800,000	0,023	0,071
-265,511	-37,341	-0,132	-0,051
-264,497	-200,000	0,012	-0,049
-263,482	-95,689	-0,052	-0,010
-262,467	800,000	0,032	-0,071
-261,453	34,989	-0,076	-0,048
-260,438	35,838	0,046	-0,029
-259,424	800,000	0,038	0,087
-258,409	-200,000	0,004	-0,020
-257,395	736,484	0,053	-0,103
-256,380	-200,000	0,020	0,079
-255,365	800,000	0,020	-0,056
-254,351	198,559	-0,038	-0,043
-253,336	800,000	-0,014	0,037
-252,322	270,752	-0,084	-0,107
-251,307	353,216	0,026	-0,037
-250,292	199,784	0,064	-0,071
-249,278	477,883	-0,046	-0,075
-248,263	-200,000	0,003	0,259
-247,249	-200,000	-0,002	0,104
-246,234	1,781	0,054	0,028
-245,219	156,458	0,067	-0,067
-244,205	-77,255	-0,145	-0,036
-243,190	558,126	-0,036	-0,064
-242,176	777,916	-0,062	-0,122
-241,161	-200,000	0,015	0,116
-240,146	-200,000	-0,019	0,158
-239,132	-50,402	0,116	0,039
-238,117	-200,000	-0,015	-0,155
-237,103	262,566	-0,053	-0,067
-236,088	-68,488	0,076	0,021
-235,073	800,000	-0,083	0,194
-234,059	-147,584	-0,048	-0,003
-233,044	-97,094	0,111	-0,021
-232,030	-75,246	0,052	-0,013
-231,015	-59,546	0,048	-0,015
-230,000	-200,000	-0,004	-0,041
-228,986	328,999	-0,036	0,050
-227,971	60,035	0,023	-0,016
-226,957	526,151	0,049	0,083
-225,942	744,209	-0,026	0,051
-224,927	131,474	-0,026	-0,024
-223,913	126,481	-0,050	-0,046
-222,898	-200,000	-0,004	-0,061
-221,884	317,108	-0,054	-0,074
-220,869	40,737	0,093	-0,060
-219,855	202,668	0,114	-0,127
-218,840	800,000	-0,077	0,168
-217,825	378,752	-0,080	-0,119
-216,811	-68,533	0,051	0,014
-215,796	78,002	-0,123	-0,094
-214,782	-69,267	-0,075	0,021
-213,767	-63,715	-0,017	0,005
-212,752	-157,929	0,056	-0,002
-211,738	-151,640	0,103	-0,005
-210,723	514,519	0,039	-0,066
-209,709	-200,000	-0,004	-0,030
-208,694	140,083	-0,084	-0,080
-207,679	-200,000	0,057	0,000
-206,665	86,768	-0,082	0,066
-205,650	-143,462	0,059	0,004
-204,636	-6,719	0,062	0,030
-203,621	-200,000	0,008	0,075
-202,606	-200,000	-0,022	0,080
-201,592	800,000	-0,020	-0,041
-200,577	465,546	0,026	0,043
-199,563	-200,000	-0,012	-0,074
-198,548	34,784	0,070	-0,044
-197,533	-3,503	0,062	0,031
-196,519	140,960	-0,025	0,024
-195,504	800,000	-0,022	-0,054
-194,490	17,879	-0,012	-0,007
-193,475	-200,000	-0,017	0,122
-192,460	-82,928	0,131	0,030
-191,446	-200,000	0,025	-0,100
-190,431	-200,000	0,026	0,119
-189,417	445,015	0,093	0,148
-188,402	-200,000	-0,004	0,037
-187,387	-8,539	-0,111	0,054
-186,373	98,798	-0,104	-0,087
-185,358	-200,000	0,009	0,146
-184,344	-71,864	0,056	0,015
-183,329	-200,000	0,002	0,081
-182,315	474,074	-0,037	0,061
-181,300	385,895	0,048	-0,071
-180,285	-200,000	-0,025	-0,091
-179,271	615,536	-0,033	-0,060
-178,256	-77,131	0,036	0,009
-177,242	-200,000	-0,008	-0,066
-176,227	294,224	0,044	-0,058
-175,212	-29,528	0,019	-0,008
-174,198	544,314	0,025	-0,043
-173,183	-200,000	-0,026	-0,098
-172,169	53,228	-0,128	-0,088
-171,154	-200,000	0,009	-0,054
-170,139	-188,192	-0,075	0,001
-169,125	-108,383	0,029	0,004
-168,110	-21,064	0,060	-0,026
-167,096	-200,000	-0,011	-0,050
-166,081	-35,758	-0,030	-0,012
-165,066	43,997	-0,099	0,065
-164,052	800,000	-0,018	0,039
-163,037	651,144	-0,064	0,118
-162,023	-34,831	0,136	0,053
-161,008	614,937	-0,068	0,123
-159,993	-200,000	-0,003	-0,025
-158,979	-131,795	0,002	-0,000
-157,964	-84,923	0,076	0,017
-156,950	26,233	0,077	-0,046
-155,935	567,166	-0,051	-0,090
-154,920	209,664	0,006	0,007
-153,906	391,686	-0,066	0,099
-152,891	-117,822	-0,156	-0,020
-151,877	800,000	-0,026	-0,058
-150,862	236,777	-0,067	-0,081
-149,847	-4,810	0,125	0,062
-148,833	-200,000	-0,003	-0,073
-147,818	-200,000	0,024	0,114
-146,804	146,614	0,064	0,062
-145,789	-200,000	-0,014	0,047
-144,775	246,847	0,055	0,067
-143,760	-200,000	0,001	-0,093
-142,745	791,010	-0,041	0,082
-141,731	84,638	0,130	0,102
-140,716	-15,570	0,079	0,036
-139,702	-81,792	0,116	-0,027
-138,687	205,052	0,095	0,106
-137,672	59,826	-0,125	0,089
-136,658	-76,285	-0,111	0,028
-135,643	-101,760	0,047	0,008
-134,629	85,282	0,111	-0,088
-133,614	-111,596	0,160	-0,023
-132,599	800,000	0,029	0,088
-131,585	-200,000	-0,021	-0,092
-130,570	-200,000	0,001	-0,089
-129,556	594,778	-0,023	0,041
-128,541	-200,000	-0,021	-0,124
-127,526	242,717	-0,067	-0,081
-126,512	475,539	0,085	0,139
-125,497	487,158	0,057	-0,094
-124,483	-200,000	0,013	0,114
-123,468	457,405	0,022	-0,035
-122,453	305,302	-0,060	-0,080
-121,439	800,000	-0,055	-0,111
-120,424	-20,172	0,085	0,038
-119,410	800,000	0,067	0,135
-118,395	-115,368	0,097	0,013
-117,380	-200,000	0,011	0,100
-116,366	370,293	0,028	-0,041
-115,351	-97,242	-0,164	-0,030
-114,337	230,598	0,070	-0,082
-113,322	137,347	-0,047	0,044
-112,307	-166,085	0,228	0,007
-111,293	800,000	0,034	0,091
-110,278	6,952	0,108	-0,058
-109,264	800,000	0,032	-0,076
-108,249	-1,393	0,156	-0,079
-107,234	-48,588	-0,050	-0,017
-106,220	800,000	-0,032	0,087
-105,205	-200,000	-0,013	0,070
-104,191	159,419	0,042	-0,042
-103,176	184,087	0,089	0,095
-102,162	-125,918	0,099	0,011
-101,147	530,585	0,053	-0,090
-100,132	-106,952	-0,093	-0,015
-99,118	215,821	0,041	-0,047
-98,103	84,673	0,081	0,064
-97,089	-48,210	-0,067	-0,023
-96,074	-200,000	0,017	0,077
-95,059	110,266	-0,011	-0,010
-94,045	153,225	0,031	-0,031
-93,030	800,000	0,009	0,026
-92,016	170,449	-0,108	-0,111
-91,001	800,000	0,015	0,043
-89,986	-200,000	0,000	0,119
-88,972	82,854	-0,054	0,042
-87,957	-137,620	0,119	-0,009
-86,943	290,386	0,066	-0,086
-85,928	-200,000	-0,034	-0,146
-84,913	118,172	0,124	0,110
-83,899	-200,000	-0,038	-0,128
-82,884	-17,199	0,049	-0,022
-81,870	183,350	0,031	0,033
-80,855	708,612	-0,090	0,171
-79,840	350,399	-0,082	-0,117
-78,826	791,085	0,070	-0,138
-77,811	-200,000	-0,023	0,119
-76,797	262,373	0,174	-0,217
-75,782	517,141	0,058	-0,098
-74,767	-200,000	-0,001	-0,019
-73,753	-200,000	0,074	0,000
-72,738	-67,021	-0,033	0,009
-71,724	-200,000	0,005	-0,073
-70,709	277,251	0,059	0,076
-69,694	-11,328	-0,105	0,049
-68,680	308,236	0,035	0,047
-67,665	-200,000	0,010	0,081
-66,651	-96,462	0,087	-0,016
-65,636	-11,033	0,112	0,053
-64,622	246,748	-0,017	0,020
-63,607	-99,997	0,115	-0,020
-62,592	355,425	-0,035	-0,050
-61,578	-59,565	0,093	0,028
-60,563	127,934	-0,082	-0,074
-59,549	268,349	0,024	0,030
-58,534	-2,256	-2,000	-1,003
-57,519	800,000	-0,320	-0,744
-56,505	-200,000	-1,194	-4,927
-55,490	73,969	0,737	0,554
-54,476	800,000	5,299	11,935
-53,461	-200,000	17,857	288,844
-52,446	800,000	728,815	2229,033
-51,432	536,443	1644,710	2810,742
-50,417	109,620	1635,200	1405,018
-49,403	75,139	1287,204	972,005
-48,388	31,682	1027,394	632,416
-47,373	20,134	989,094	570,799
-46,359	18,248	976,840	557,528
-45,344	15,250	973,003	545,515
-44,330	15,552	971,322	545,537
-43,315	15,034	969,496	542,801
-42,300	15,034	968,283	542,099
-41,286	14,988	967,466	541,471
-40,271	15,001	966,334	540,860
-39,257	15,002	965,550	540,402
-38,242	14,990	964,703	539,868
-37,227	14,954	963,953	539,307
-36,213	14,997	962,874	538,822
-35,198	14,952	962,103	538,223
-34,184	15,032	961,220	537,967
-33,169	14,950	960,313	537,175
-32,154	15,014	959,364	536,830
-31,140	15,016	958,476	536,316
-30,125	15,017	957,763	535,900
-29,111	15,024	957,011	535,480
-28,096	15,026	956,412	535,130
-27,082	15,038	955,602	534,695
-26,067	15,038	954,780	534,213
-25,052	15,032	954,124	533,807
-24,038	15,044	953,352	533,392
-23,023	14,959	952,932	532,863
-22,009	15,012	952,215	532,610
-20,994	15,022	951,440	532,186
-19,979	15,059	950,874	531,967
-18,965	14,918	950,448	531,258
-17,950	15,030	949,541	531,087
-16,936	14,924	949,105	530,484
-15,921	14,935	948,287	530,040
-14,906	14,931	947,670	529,664
-13,892	14,844	946,954	528,963
-12,877	14,868	946,566	528,804
-11,863	14,878	945,643	528,296
-10,848	14,823	945,315	527,918
-9,833	14,996	944,770	528,143
-8,819	14,934	944,146	527,579
-7,804	14,927	943,274	527,047
-6,790	14,861	943,095	526,718
-5,775	14,935	942,326	526,500
-4,760	14,899	941,674	526,002
-3,746	14,856	941,046	525,494
-2,731	14,798	940,352	524,902
-1,717	14,756	939,562	524,307
-0,702	14,771	939,033	524,039
0,313	14,556	938,423	523,810
1,327	17,724	936,085	532,426
2,342	26,566	792,790	474,298
3,356	23,150	457,811	268,659
4,371	-3,635	313,869	155,779
5,386	-7,696	295,768	142,682
6,400	-9,731	289,629	137,693
7,415	-10,167	287,166	136,081
8,429	-10,377	285,677	135,158
9,444	-10,372	284,738	134,707
10,459	-10,192	284,085	134,561
11,473	-10,370	283,512	134,105
12,488	-10,298	283,095	133,966
13,502	-10,245	282,579	133,761
14,517	-10,356	282,174	133,450
15,531	-10,338	281,744	133,252
16,546	-10,278	281,362	133,117
17,561	-10,403	280,894	132,763
18,575	-10,369	280,533	132,614
19,590	-10,373	280,226	132,453
20,604	-10,252	279,980	132,441
21,619	-10,386	279,566	132,105
22,634	-10,395	279,223	131,923
23,648	-10,332	278,843	131,792
24,663	-10,277	278,655	131,743
25,677	-10,310	278,465	131,610
26,692	-10,245	278,087	131,482
27,707	-10,464	277,834	131,143
28,721	-10,357	277,471	131,061
29,736	-10,341	277,324	130,995
30,750	-10,476	276,975	130,691
31,765	-10,358	276,788	130,702
32,780	-10,398	276,612	130,570
33,794	-10,207	276,202	130,544
34,809	-10,209	275,922	130,399
35,823	-10,306	275,697	130,190
36,838	-10,442	275,658	130,032
37,853	-10,422	275,162	129,805
38,867	-10,473	275,010	129,673
39,882	-10,484	274,709	129,509
40,896	-10,474	274,711	129,509
41,911	-10,297	274,208	129,425
42,926	-10,310	273,975	129,292
43,940	-10,401	273,776	129,101
44,955	-10,362	273,401	128,949
45,969	-10,349	273,317	128,910
46,984	-10,671	273,125	128,509
47,999	-10,955	272,891	128,123
49,013	-10,829	272,462	128,027
50,028	-10,826	272,178	127,885
51,042	-10,996	272,072	127,665
52,057	-11,113	271,855	127,444
53,071	-11,013	271,572	127,393
54,086	-10,946	271,384	127,355
55,101	-10,750	271,177	127,428
56,115	-10,556	271,090	127,555
57,130	-10,325	270,889	127,662
58,144	-10,267	270,695	127,612
59,159	-10,185	270,607	127,636
60,174	-10,195	270,282	127,462
61,188	-10,198	270,076	127,350
62,203	-10,253	269,901	127,206
63,217	-10,365	269,740	127,016
64,232	-10,145	269,366	127,030
65,247	-10,256	269,088	126,786
66,261	-10,218	268,970	126,754
67,276	-10,525	268,701	126,335
68,290	-10,520	268,401	126,187
69,305	-10,817	268,236	125,828
70,320	-10,582	267,925	125,885
71,334	-10,464	267,882	125,961
72,349	-10,331	267,669	125,970
73,363	-10,072	267,427	126,080
74,378	-10,240	267,327	125,870
75,393	-10,145	266,988	125,785
76,407	-10,247	266,774	125,580
77,422	-10,369	266,567	125,361
78,436	-10,300	266,426	125,347
79,451	-10,236	266,159	125,268
80,466	-10,223	265,781	125,090
81,480	-10,468	265,660	124,801
82,495	-10,509	265,385	124,623
83,509	-10,476	265,223	124,566
84,524	-10,495	264,949	124,409
85,539	-10,495	264,744	124,301
86,553	-10,476	264,536	124,210
87,568	-10,426	264,245	124,107
88,582	-10,557	264,143	123,931
89,597	-10,516	263,878	123,832
90,611	-10,502	263,837	123,814
91,626	-10,158	263,701	124,048
92,641	-10,236	263,470	123,858
93,655	-10,337	263,251	123,653
94,670	-10,338	263,046	123,545
95,684	-10,382	262,864	123,410
96,699	-10,431	262,625	123,243
97,714	-10,404	262,446	123,171
98,728	-10,611	262,229	122,875
99,743	-10,625	261,976	122,733
100,757	-10,356	261,618	122,793
101,772	-10,301	261,580	122,813
102,787	-10,232	261,455	122,805
103,801	-10,398	261,254	122,552
104,816	-10,304	261,049	122,528
105,830	-10,287	260,960	122,491
106,845	-10,223	260,697	122,413
107,860	-10,440	260,553	122,143
108,874	-10,389	260,268	122,043
109,889	-10,220	259,895	122,006
110,903	-10,400	259,883	121,831
111,918	-10,385	259,651	121,725
112,933	-10,116	259,381	121,824
113,947	-10,251	259,261	121,638
114,962	-10,276	259,090	121,525
115,976	-10,296	258,909	121,411
116,991	-10,104	258,613	121,430
118,006	-10,155	258,495	121,320
119,020	-10,237	258,451	121,216
120,035	-10,344	258,351	121,065
121,049	-10,165	257,961	121,028
122,064	-10,187	257,903	120,970
123,079	-10,201	257,688	120,847
124,093	-10,300	257,405	120,617
125,108	-10,292	257,199	120,516
126,122	-10,545	256,852	120,124
127,137	-10,850	256,908	119,873
128,151	-10,705	256,559	119,826
129,166	-10,614	256,556	119,892
130,181	-10,456	256,105	119,809
131,195	-10,804	256,133	119,509
132,210	-10,408	255,923	119,743
133,224	-10,442	255,686	119,592
134,239	-10,303	255,456	119,594
135,254	-10,224	255,410	119,631
136,268	-10,372	255,058	119,327
137,283	-10,596	254,892	119,046
138,297	-10,754	254,620	118,772
139,312	-10,793	254,374	118,614
140,327	-10,611	254,325	118,736
141,341	-10,224	254,253	119,025
142,356	-10,078	254,048	119,043
143,370	-10,230	253,880	118,824
144,385	-10,163	253,749	118,809
145,400	-10,179	253,631	118,729
146,414	-9,959	253,273	118,740
147,429	-10,177	253,186	118,502
148,443	-10,172	253,136	118,472
149,458	-10,212	252,891	118,313
150,473	-10,230	252,603	118,152
151,487	-10,145	252,364	118,102
152,502	-10,237	252,332	117,998
153,516	-10,063	252,095	118,025
154,531	-10,034	251,777	117,890
155,546	-9,951	251,661	117,896
156,560	-10,067	251,325	117,630
157,575	-10,240	251,311	117,466
158,589	-10,249	251,087	117,343
159,604	-10,017	250,933	117,457
160,619	-10,189	250,711	117,197
161,633	-9,939	250,528	117,312
162,648	-9,952	250,354	117,210
163,662	-9,905	250,193	117,163
164,677	-10,193	250,177	116,902
165,692	-10,198	250,050	116,828
166,706	-9,992	249,825	116,887
167,721	-10,110	249,636	116,688
168,735	-10,127	249,515	116,607
169,750	-10,140	249,415	116,539
170,764	-10,071	249,129	116,453
171,779	-9,961	249,060	116,503
172,794	-9,885	248,790	116,430
173,808	-10,189	248,584	116,068
174,823	-10,683	248,275	115,501
175,837	-10,521	248,093	115,540
176,852	-10,163	248,055	115,812
177,867	-10,112	247,973	115,806
178,881	-9,986	247,778	115,810
179,896	-9,980	247,614	115,728
180,910	-10,109	247,438	115,528
181,925	-10,097	247,174	115,404
182,940	-9,939	247,180	115,528
183,954	-10,074	246,961	115,303
184,969	-10,096	246,853	115,224
185,983	-9,999	246,622	115,186
186,998	-10,061	246,464	115,051
188,013	-10,035	246,181	114,930
189,027	-9,888	246,007	114,960
190,042	-9,936	245,854	114,839
191,056	-9,875	245,656	114,787
192,071	-10,146	245,496	114,477
193,086	-10,027	245,448	114,544
194,100	-9,999	245,128	114,407
195,115	-10,030	245,083	114,350
196,129	-9,897	244,857	114,345
197,144	-9,963	244,605	114,162
198,159	-10,158	244,541	113,962
199,173	-9,941	244,341	114,036
200,188	-10,026	244,132	113,859
201,202	-10,387	243,849	113,421
202,217	-10,376	243,624	113,315
203,232	-10,533	243,451	113,096
204,246	-10,040	243,270	113,405
205,261	-9,643	243,054	113,618
206,275	-10,645	242,791	112,668
207,290	-6,817	244,516	116,602
208,304	0,959	246,905	124,160
209,319	4,554	247,744	127,542
210,334	4,762	247,901	127,784
211,348	5,064	247,681	127,908
212,363	5,448	247,521	128,131
213,377	5,601	247,472	128,220
214,392	5,200	247,386	127,834
215,407	5,258	247,090	127,717
216,421	5,314	246,942	127,675
217,436	5,490	246,790	127,730
218,450	5,389	246,689	127,583
219,465	5,193	246,428	127,276
220,480	5,124	246,401	127,194
221,494	5,136	246,166	127,071
222,509	4,804	246,011	126,708
223,523	5,068	245,756	126,781
224,538	4,725	245,556	126,387
225,553	4,743	245,429	126,324
226,567	5,114	245,264	126,531
227,582	5,002	245,137	126,363
228,596	4,797	245,030	126,129
229,611	4,232	244,809	125,545
230,626	4,537	244,478	125,612
231,640	4,752	244,315	125,691
232,655	4,750	244,274	125,658
233,669	4,718	243,927	125,442
234,684	4,533	243,929	125,282
235,699	4,927	243,844	125,546
236,713	5,025	243,711	125,546
237,728	4,715	243,439	125,144
238,742	4,637	243,270	124,983
239,757	4,544	243,068	124,793
240,772	4,591	242,864	124,715
241,786	4,603	242,773	124,666
242,801	4,471	242,656	124,489
243,815	4,345	242,508	124,301
244,830	4,737	242,384	124,542
245,844	4,911	242,260	124,606
246,859	4,590	242,143	124,278
247,874	4,537	241,865	124,081
248,888	4,779	241,589	124,122
249,903	4,761	241,488	124,045
250,917	4,644	241,487	123,940
251,932	4,973	241,328	124,110
252,947	4,834	241,144	123,893
253,961	4,627	241,038	123,662
254,976	4,776	240,890	123,694
255,990	4,856	240,733	123,667
257,005	4,554	240,593	123,343
258,020	4,681	240,243	123,253
259,034	4,653	240,115	123,155
260,049	4,573	240,008	123,025
261,063	4,544	239,742	122,855
262,078	4,421	239,694	122,722
263,093	4,754	239,613	122,934
264,107	4,737	239,526	122,865
265,122	4,658	239,201	122,624
266,136	4,667	239,131	122,584
267,151	4,920	239,047	122,731
268,166	4,446	238,671	122,152
269,180	4,405	238,652	122,099
270,195	5,100	238,676	122,650
271,209	5,233	238,562	122,685
272,224	4,650	238,174	122,015
273,239	4,172	237,941	121,508
274,253	4,242	237,761	121,460
275,268	4,365	237,793	121,563
276,282	4,543	237,565	121,576
277,297	4,384	237,351	121,330
278,312	4,518	237,240	121,368
279,326	4,680	237,036	121,379
280,341	4,515	236,989	121,216
281,355	4,488	236,836	121,105
282,370	4,877	236,765	121,363
283,384	4,888	236,462	121,205
284,399	4,644	236,142	120,840
285,414	4,525	236,104	120,717
286,428	4,399	236,030	120,569
287,443	4,559	235,794	120,563
288,457	4,787	235,770	120,718
289,472	4,908	235,697	120,765
290,487	4,713	235,521	120,512
291,501	4,531	235,341	120,267
292,516	4,344	235,099	119,987
293,530	4,408	234,982	119,966
294,545	4,614	235,022	120,136
295,560	4,718	234,622	120,002
296,574	4,515	234,508	119,775
297,589	4,314	234,528	119,619
298,603	4,895	234,325	119,954
299,618	4,897	234,119	119,840
300,633	4,579	234,068	119,557
301,647	4,762	233,943	119,624
302,662	5,003	233,799	119,726
303,676	4,929	233,629	119,571
304,691	5,059	233,491	119,591
305,706	5,101	233,399	119,565
306,720	5,174	233,242	119,530
307,735	5,066	233,059	119,342
308,749	4,553	232,895	118,853
309,764	4,470	232,600	118,629
310,779	4,257	232,426	118,365
311,793	4,178	232,099	118,127
312,808	4,096	231,945	117,976
313,822	4,559	231,903	118,299
314,837	4,918	231,888	118,556
315,852	4,701	231,702	118,284
316,866	4,819	231,659	118,341
317,881	4,922	231,533	118,346
318,895	4,876	231,342	118,202
319,910	5,199	231,222	118,377
320,925	4,666	231,009	117,851
321,939	4,552	230,742	117,617
322,954	4,624	230,795	117,689
323,968	4,547	230,610	117,526
324,983	4,376	230,619	117,389
325,997	5,198	230,306	117,844
327,012	4,912	230,200	117,562
328,027	4,673	230,051	117,294
329,041	5,101	229,918	117,540
330,056	5,398	229,925	117,759
331,070	5,541	229,812	117,798
332,085	5,108	229,575	117,339
333,100	4,923	229,281	117,039
334,114	4,784	229,242	116,903
335,129	4,961	229,273	117,042
336,143	5,188	229,165	117,148
337,158	5,065	228,838	116,878
338,173	4,847	228,600	116,581
339,187	4,600	228,520	116,345
340,202	4,791	228,289	116,360
341,216	4,737	228,138	116,232
342,231	4,734	227,978	116,138
343,246	4,727	227,921	116,093
344,260	4,938	227,765	116,161
345,275	4,815	227,811	116,082
346,289	4,882	227,591	116,010
347,304	5,063	227,449	116,063
348,319	4,956	227,215	115,853
349,333	4,880	227,073	115,714
350,348	4,689	226,977	115,511
351,362	5,001	226,681	115,584
352,377	4,552	226,556	115,175
353,392	4,557	226,423	115,100
354,406	4,534	226,217	114,969
355,421	195,420	1320,008	1395,227
356,435	156,653	1453,257	1395,213
