DTS Sentinel unit serial number:	SN410029Multiplexer serial number:	ORYXHardware model number:	OX2-SRSoftware version number:	ORYX F/W v4,00 Oryx Data Collector v3.7.2.0data status	okinstallation	B5 Nyhavnadifferential loss correction	single-endedforward channel	channel 2reverse channel	N/Adate	2023/12/12time	21:52:14forward acquisition time	300,00reverse acquisition time	0,00gamma	499,1914k internal	0,3158k external	0,3158temperature offset calibration	1,0000default loss term (dB/km)	0,3820temperature slope calibration	1,0000multiplexer offset coefficient	1,0000multiplexer slope coefficient	1,0000fibre end	0,00T internal ref (°C)	14,79T ext. ref 1 (°C)	-1,82T ext. ref 2 (°C)	-2,14length (m)	temperature (°C)	Stokes	anti-Stokes-744,400	264,410	0,092	-0,119
-743,385	-61,980	-0,248	0,076
-742,371	54,273	0,117	0,083
-741,356	-47,508	-0,334	0,119
-740,342	697,286	0,061	0,119
-739,327	-77,299	-0,340	0,086
-738,312	-200,000	0,007	0,108
-737,298	-147,426	-0,297	0,018
-736,283	800,000	0,043	0,134
-735,269	2,851	-0,285	0,152
-734,254	796,398	0,092	0,187
-733,239	-30,052	-0,316	-0,132
-732,225	800,000	0,118	0,262
-731,210	222,910	-0,061	-0,072
-730,196	-200,000	-0,040	-0,220
-729,181	-143,104	-0,134	-0,009
-728,167	-200,000	-0,001	-0,055
-727,152	-86,074	-0,039	-0,009
-726,137	800,000	-0,040	0,099
-725,123	-68,521	0,061	-0,017
-724,108	-107,497	-0,083	0,013
-723,094	-200,000	0,001	-0,139
-722,079	-41,757	-0,042	-0,016
-721,064	375,872	0,012	0,018
-720,050	193,625	-0,034	-0,038
-719,035	73,166	0,028	0,022
-718,021	-200,000	0,007	-0,096
-717,006	556,829	0,028	-0,051
-715,991	-200,000	-0,053	-0,188
-714,977	240,591	0,065	0,080
-713,962	50,296	-0,035	0,024
-712,948	608,603	0,029	0,054
-711,933	-45,399	-0,062	0,023
-710,918	87,620	-0,086	-0,070
-709,904	-200,000	0,004	0,101
-708,889	-200,000	-0,009	0,061
-707,875	-177,475	0,097	0,002
-706,860	-31,761	-0,060	0,025
-705,845	-138,177	-0,071	0,006
-704,831	800,000	0,079	0,196
-703,816	-200,000	-0,011	-0,044
-702,802	771,716	-0,059	0,120
-701,787	-163,243	-0,265	0,009
-700,772	-107,734	-0,122	0,019
-699,758	-94,168	0,123	-0,025
-698,743	800,000	0,049	0,133
-697,729	-86,079	-0,014	-0,003
-696,714	12,064	-0,092	-0,052
-695,699	-200,000	-0,000	-0,013
-694,685	-200,000	0,003	0,017
-693,670	283,712	-0,057	-0,076
-692,656	21,534	-0,058	0,034
-691,641	756,709	0,041	0,081
-690,627	-74,881	-0,113	-0,030
-689,612	-137,027	-0,176	-0,015
-688,597	75,495	-0,108	-0,084
-687,583	300,804	-0,036	-0,049
-686,568	-34,905	-0,115	-0,046
-685,554	-69,627	0,084	-0,023
-684,539	-66,709	0,073	0,021
-683,524	-196,020	0,217	-0,001
-682,510	15,130	-0,076	-0,044
-681,495	-122,182	-0,128	0,015
-680,481	-200,000	0,012	-0,085
-679,466	-200,000	0,001	0,078
-678,451	-107,151	-0,093	-0,015
-677,437	-135,649	0,089	0,008
-676,422	50,636	0,056	-0,039
-675,408	-200,000	0,011	0,094
-674,393	110,852	-0,087	-0,077
-673,378	800,000	-0,048	-0,134
-672,364	110,107	-0,138	-0,122
-671,349	259,668	-0,007	0,009
-670,335	-200,000	0,012	-0,141
-669,320	46,034	-0,045	-0,031
-668,305	-145,826	0,084	-0,005
-667,291	485,360	-0,030	-0,050
-666,276	-200,000	-0,004	-0,037
-665,262	-200,000	-0,015	-0,088
-664,247	183,682	-0,133	-0,145
-663,232	-56,569	0,069	-0,022
-662,218	55,092	0,140	0,099
-661,203	-50,300	0,029	0,010
-660,189	800,000	-0,034	0,095
-659,174	211,974	0,060	-0,069
-658,159	-24,538	-0,105	-0,046
-657,145	497,182	-0,045	-0,076
-656,130	-200,000	0,001	0,013
-655,116	99,619	-0,068	-0,058
-654,101	-172,342	0,070	0,002
-653,086	-200,000	-0,095	0,000
-652,072	61,876	-0,031	0,023
-651,057	-18,501	-0,202	-0,092
-650,043	250,038	0,050	-0,063
-649,028	-122,917	-0,074	-0,009
-648,014	-108,850	-0,088	-0,014
-646,999	800,000	-0,027	-0,061
-645,984	-52,510	-0,051	-0,017
-644,970	1,672	-0,111	-0,059
-643,955	-84,984	-0,124	0,028
-642,941	169,241	-0,083	0,087
-641,926	-11,234	0,093	0,045
-640,911	-200,000	-0,008	0,055
-639,897	162,360	-0,060	-0,062
-638,882	152,998	-0,067	-0,068
-637,868	-29,219	0,109	-0,046
-636,853	283,579	0,033	-0,043
-635,838	141,042	-0,113	-0,110
-634,824	-34,969	0,093	0,037
-633,809	145,441	0,084	0,083
-632,795	800,000	-0,053	0,153
-631,780	251,031	-0,042	0,053
-630,765	-5,417	-0,050	-0,025
-629,751	-102,415	-0,191	-0,033
-628,736	183,976	-0,059	-0,064
-627,722	-59,662	0,074	-0,023
-626,707	249,272	-0,010	-0,013
-625,692	126,481	0,059	0,055
-624,678	107,756	0,071	0,062
-623,663	6,178	-0,016	0,009
-622,649	226,562	-0,070	-0,083
-621,634	-78,762	-0,145	0,036
-620,619	800,000	-0,023	-0,048
-619,605	-200,000	0,022	-0,142
-618,590	118,991	0,080	0,073
-617,576	-68,439	0,026	0,007
-616,561	87,850	0,110	-0,090
-615,546	-200,000	0,025	-0,096
-614,532	800,000	0,041	0,120
-613,517	-100,588	-0,113	-0,020
-612,503	415,838	0,047	0,074
-611,488	-116,806	0,134	0,018
-610,474	-107,884	-0,049	0,008
-609,459	423,585	-0,095	-0,150
-608,444	188,733	-0,059	0,065
-607,430	97,787	-0,059	0,050
-606,415	505,390	-0,059	0,100
-605,401	800,000	0,020	-0,042
-604,386	123,142	0,077	0,071
-603,371	-152,848	0,205	-0,010
-602,357	800,000	-0,003	-0,009
-601,342	-200,000	-0,004	-0,141
-600,328	31,412	-0,066	-0,041
-599,313	800,000	-0,066	-0,207
-598,298	203,780	-0,056	-0,064
-597,284	228,327	0,093	0,111
-596,269	-200,000	-0,072	0,000
-595,255	-200,000	-0,033	0,138
-594,240	28,233	-0,069	-0,043
-593,225	299,876	-0,069	0,094
-592,211	69,725	-0,036	0,027
-591,196	-115,148	0,057	0,008
-590,182	-148,290	0,083	0,005
-589,167	789,031	-0,037	0,074
-588,152	-2,560	-0,081	-0,041
-587,138	129,671	-0,040	-0,037
-586,123	800,000	0,044	-0,095
-585,109	-69,174	-0,039	0,011
-584,094	-171,075	0,013	0,000
-583,079	-152,182	-0,108	-0,006
-582,065	146,033	0,024	-0,023
-581,050	494,798	-0,050	-0,084
-580,036	-200,000	0,021	-0,101
-579,021	-200,000	0,008	-0,040
-578,006	800,000	-0,010	0,027
-576,992	127,221	-0,110	-0,103
-575,977	-200,000	0,002	0,051
-574,963	800,000	0,035	-0,110
-573,948	398,248	0,053	-0,082
-572,934	-99,788	-0,129	-0,023
-571,919	-65,909	0,016	-0,005
-570,904	-200,000	0,050	-0,167
-569,890	-200,000	-0,018	-0,131
-568,875	55,494	0,075	0,053
-567,861	-26,602	-0,121	-0,052
-566,846	-0,505	-0,033	-0,017
-565,831	-22,180	-0,148	0,066
-564,817	-56,649	-0,124	0,040
-563,802	-110,700	-0,162	0,024
-562,788	90,694	-0,010	0,008
-561,773	-200,000	0,026	-0,108
-560,758	-39,255	0,040	0,015
-559,744	-8,277	0,039	-0,019
-558,729	-200,000	-0,022	0,084
-557,715	163,029	-0,040	0,041
-556,700	800,000	-0,068	-0,184
-555,685	312,650	-0,018	0,025
-554,671	-200,000	-0,004	0,110
-553,656	22,852	-0,039	0,023
-552,642	800,000	0,007	0,015
-551,627	-120,151	-0,147	-0,018
-550,612	-103,706	-0,076	-0,013
-549,598	-123,069	-0,062	-0,007
-548,583	33,064	-0,063	0,040
-547,569	22,543	0,081	-0,049
-546,554	-36,336	-0,033	0,013
-545,539	95,671	-0,174	0,145
-544,525	791,298	0,028	0,057
-543,510	-79,043	-0,089	-0,022
-542,496	-200,000	0,008	-0,076
-541,481	792,541	0,042	-0,086
-540,466	800,000	0,027	-0,082
-539,452	-97,937	-0,016	0,003
-538,437	-2,980	0,020	-0,010
-537,423	-168,336	0,137	-0,004
-536,408	-97,704	-0,113	0,021
-535,393	-200,000	-0,006	-0,046
-534,379	11,791	0,064	-0,036
-533,364	-200,000	0,003	-0,050
-532,350	-200,000	0,002	-0,013
-531,335	100,478	0,096	-0,082
-530,321	800,000	-0,045	0,136
-529,306	-125,785	-0,025	0,003
-528,291	357,869	0,042	-0,061
-527,277	30,501	0,051	-0,032
-526,262	-46,405	-0,032	-0,011
-525,248	-16,841	0,159	0,073
-524,233	-63,787	-0,083	0,025
-523,218	-200,000	0,019	0,070
-522,204	-200,000	0,012	0,088
-521,189	44,178	-0,102	0,068
-520,175	-200,000	0,021	-0,125
-519,160	-200,000	0,014	0,083
-518,145	795,625	0,031	-0,063
-517,131	-200,000	-0,018	-0,075
-516,116	-200,000	0,035	0,138
-515,102	-29,145	-0,083	-0,034
-514,087	152,308	0,038	-0,038
-513,072	800,000	0,053	-0,145
-512,058	-200,000	-0,011	0,062
-511,043	172,524	0,033	0,035
-510,029	734,758	0,043	0,084
-509,014	-200,000	0,017	0,115
-507,999	-200,000	-0,016	-0,167
-506,985	-1,585	-0,111	-0,057
-505,970	-154,865	-0,137	-0,006
-504,956	-87,838	-0,128	0,028
-503,941	574,420	-0,018	-0,032
-502,926	245,151	0,071	-0,088
-501,912	269,816	-0,095	-0,122
-500,897	255,868	0,019	0,023
-499,883	174,792	-0,080	-0,085
-498,868	397,347	-0,008	-0,012
-497,853	482,737	0,093	-0,155
-496,839	800,000	-0,007	-0,021
-495,824	54,798	0,095	0,067
-494,810	196,660	-0,064	0,071
-493,795	188,548	0,037	-0,041
-492,781	-200,000	-0,020	0,120
-491,766	-32,421	-0,067	0,027
-490,751	-4,221	-0,075	-0,038
-489,737	-84,542	0,054	0,012
-488,722	-89,171	0,177	-0,038
-487,708	451,962	0,030	0,049
-486,693	384,042	0,104	-0,156
-485,678	10,914	-0,052	-0,029
-484,664	-15,026	0,137	-0,064
-483,649	126,568	0,091	-0,084
-482,635	-153,151	0,167	0,008
-481,620	-60,093	0,164	0,051
-480,605	-28,016	0,041	-0,017
-479,591	242,906	0,036	-0,044
-478,576	-111,744	-0,040	-0,006
-477,562	-3,735	0,076	0,038
-476,547	122,539	-0,103	-0,094
-475,532	-200,000	-0,012	-0,104
-474,518	800,000	-0,028	0,067
-473,503	-200,000	0,039	0,191
-472,489	227,080	0,031	-0,037
-471,474	387,381	0,081	-0,122
-470,459	-200,000	0,005	-0,150
-469,445	-200,000	0,000	-0,021
-468,430	800,000	0,094	-0,257
-467,416	-100,810	0,027	-0,005
-466,401	-200,000	0,021	-0,089
-465,386	800,000	-0,057	0,155
-464,372	-5,469	0,090	0,045
-463,357	353,013	-0,063	0,092
-462,343	13,067	-0,070	0,040
-461,328	-136,289	0,188	0,016
-460,313	-61,895	-0,115	0,035
-459,299	800,000	0,051	-0,149
-458,284	-59,064	0,077	-0,024
-457,270	79,380	0,075	-0,059
-456,255	-107,005	-0,107	-0,017
-455,241	800,000	-0,026	0,059
-454,226	538,590	-0,064	-0,112
-453,211	-33,905	0,032	0,013
-452,197	-200,000	0,041	-0,188
-451,182	4,880	0,120	0,064
-450,168	338,456	0,044	0,063
-449,153	-200,000	0,013	-0,094
-448,138	123,273	0,112	-0,102
-447,124	78,086	0,058	-0,045
-446,109	39,625	-0,089	-0,058
-445,095	48,690	0,063	0,043
-444,080	-200,000	-0,016	0,051
-443,065	800,000	-0,029	-0,065
-442,051	668,443	-0,051	-0,096
-441,036	800,000	0,074	-0,189
-440,022	-107,665	0,054	0,009
-439,007	-46,651	-0,120	-0,042
-437,992	-200,000	0,012	0,101
-436,978	800,000	-0,047	0,105
-435,963	139,568	0,069	-0,066
-434,949	661,200	-0,093	-0,176
-433,934	-200,000	0,036	-0,134
-432,919	-200,000	-0,018	0,080
-431,905	-141,657	-0,114	-0,008
-430,890	-200,000	-0,029	-0,189
-429,876	33,504	-0,088	-0,055
-428,861	800,000	-0,043	-0,115
-427,846	-200,000	-0,003	0,039
-426,832	90,093	-0,042	-0,034
-425,817	352,088	-0,120	-0,174
-424,803	353,307	0,069	-0,100
-423,788	-200,000	0,001	0,035
-422,773	-106,354	-0,154	-0,025
-421,759	93,479	0,140	0,115
-420,744	-200,000	0,013	-0,046
-419,730	-200,000	0,016	0,097
-418,715	-115,444	-0,112	0,015
-417,701	-200,000	0,009	-0,039
-416,686	87,575	0,095	0,076
-415,671	-200,000	0,022	0,086
-414,657	-47,430	-0,053	0,019
-413,642	-200,000	-0,008	-0,033
-412,628	179,698	0,076	-0,081
-411,613	-200,000	-0,014	-0,118
-410,598	11,495	0,063	-0,035
-409,584	77,602	0,081	-0,062
-408,569	800,000	0,023	-0,050
-407,555	-200,000	0,021	-0,137
-406,540	278,749	-0,036	0,047
-405,525	800,000	-0,019	0,042
-404,511	-200,000	-0,021	-0,109
-403,496	109,055	0,065	-0,057
-402,482	252,420	-0,090	0,112
-401,467	81,377	-0,058	0,045
-400,452	-165,733	-0,137	-0,004
-399,438	-200,000	-0,045	0,256
-398,423	10,727	-0,122	-0,068
-397,409	118,440	-0,025	0,022
-396,394	-44,414	0,089	0,032
-395,379	-65,962	-0,118	0,034
-394,365	652,944	0,040	0,076
-393,350	87,458	-0,009	-0,008
-392,336	139,348	-0,099	0,095
-391,321	176,684	0,052	-0,055
-390,306	-70,346	0,045	-0,012
-389,292	-200,000	-0,027	-0,193
-388,277	379,707	0,031	-0,046
-387,263	-177,766	-0,076	-0,001
-386,248	-69,993	0,082	0,023
-385,233	800,000	-0,037	0,075
-384,219	-102,289	-0,031	0,005
-383,204	92,692	-0,025	-0,020
-382,190	-200,000	-0,189	-0,001
-381,175	-89,961	0,110	0,023
-380,160	-200,000	0,008	0,109
-379,146	-93,647	0,064	-0,013
-378,131	-200,000	-0,003	0,024
-377,117	0,189	0,084	0,044
-376,102	104,318	-0,120	0,103
-375,088	-39,873	-0,083	0,032
-374,073	781,360	0,111	0,221
-373,058	2,845	0,136	0,072
-372,044	800,000	0,015	-0,036
-371,029	47,654	-0,058	0,039
-370,015	238,098	0,050	0,060
-369,000	800,000	0,026	-0,062
-367,985	800,000	-0,020	-0,041
-366,971	192,471	0,046	-0,050
-365,956	232,223	-0,022	0,026
-364,942	101,352	0,069	0,058
-363,927	39,098	-0,084	0,054
-362,912	-92,576	0,184	0,037
-361,898	98,560	-0,017	0,014
-360,883	-124,111	-0,163	0,018
-359,869	800,000	0,012	-0,038
-358,854	134,166	0,061	0,057
-357,839	214,493	0,073	-0,085
-356,825	295,262	-0,044	-0,058
-355,810	-109,448	-0,029	-0,004
-354,796	151,456	-0,062	-0,061
-353,781	108,280	-0,044	0,038
-352,766	148,280	-0,123	-0,120
-351,752	-60,157	0,070	-0,021
-350,737	186,461	0,082	0,089
-349,723	-35,470	0,018	-0,007
-348,708	90,144	0,020	-0,016
-347,693	-200,000	0,000	-0,042
-346,679	-6,859	-0,067	0,033
-345,664	-5,714	-0,090	0,045
-344,650	-74,618	-0,120	0,031
-343,635	800,000	0,032	-0,097
-342,620	291,439	0,026	-0,034
-341,606	448,586	0,060	0,096
-340,591	-10,397	0,011	0,005
-339,577	194,934	0,044	0,049
-338,562	304,759	0,033	-0,045
-337,548	-200,000	0,007	-0,057
-336,533	-200,000	-0,008	-0,072
-335,518	800,000	0,033	0,101
-334,504	-15,613	0,046	0,021
-333,489	800,000	-0,041	0,098
-332,475	619,821	0,026	0,048
-331,460	54,760	-0,126	-0,088
-330,445	-200,000	-0,005	0,025
-329,431	183,045	0,053	0,056
-328,416	-29,107	0,035	-0,014
-327,402	-200,000	0,026	0,125
-326,387	-5,581	0,038	0,019
-325,372	800,000	-0,074	-0,161
-324,358	-200,000	0,005	-0,125
-323,343	208,019	0,109	-0,123
-322,329	53,325	0,050	-0,034
-321,314	-200,000	0,004	0,148
-320,299	-27,992	0,090	-0,038
-319,285	-200,000	0,004	0,073
-318,270	-200,000	-0,003	-0,125
-317,256	28,069	0,069	-0,042
-316,241	-97,980	-0,027	0,005
-315,226	800,000	-0,015	0,036
-314,212	94,206	0,114	0,094
-313,197	-94,502	0,104	-0,020
-312,183	-146,258	-0,060	0,004
-311,168	-21,368	0,083	-0,036
-310,153	446,125	0,055	0,088
-309,139	-200,000	-0,027	-0,129
-308,124	288,985	-0,048	-0,064
-307,110	543,013	0,050	-0,087
-306,095	-200,000	-0,002	0,109
-305,080	-200,000	-0,023	0,147
-304,066	-128,737	-0,118	0,012
-303,051	800,000	-0,045	-0,095
-302,037	146,463	-0,079	0,077
-301,022	-59,104	-0,084	0,026
-300,008	-200,000	-0,007	0,160
-298,993	41,503	0,128	0,084
-297,978	-200,000	0,009	-0,060
-296,964	472,787	-0,126	-0,206
-295,949	-200,000	0,009	-0,105
-294,935	-56,907	-0,052	-0,016
-293,920	401,271	0,053	0,081
-292,905	188,342	0,101	0,110
-291,891	37,445	-0,029	-0,019
-290,876	-200,000	-0,023	-0,090
-289,862	632,522	0,018	-0,034
-288,847	-200,000	0,021	0,209
-287,832	640,380	-0,029	0,054
-286,818	-155,735	0,138	-0,006
-285,803	295,413	0,013	0,017
-284,789	7,525	0,214	-0,116
-283,774	59,249	0,041	0,029
-282,759	63,171	0,062	-0,045
-281,745	395,628	-0,043	0,065
-280,730	800,000	0,037	-0,102
-279,716	-200,000	0,008	0,048
-278,701	622,755	-0,020	0,037
-277,686	800,000	-0,005	0,010
-276,672	521,036	0,056	0,095
-275,657	-105,378	0,083	0,013
-274,643	-73,569	-0,055	0,014
-273,628	-200,000	0,012	-0,068
-272,613	-167,111	-0,090	0,003
-271,599	-40,568	-0,035	-0,013
-270,584	287,458	-0,043	-0,056
-269,570	-183,373	0,122	0,001
-268,555	176,422	0,072	0,076
-267,540	108,203	-0,013	-0,011
-266,526	-46,918	0,146	-0,051
-265,511	-153,819	-0,035	0,002
-264,497	-200,000	0,002	-0,024
-263,482	53,854	0,084	-0,058
-262,467	-200,000	0,007	0,034
-261,453	300,581	0,048	0,064
-260,438	287,613	-0,082	0,108
-259,424	-200,000	-0,011	-0,073
-258,409	-200,000	-0,008	0,119
-257,395	24,381	0,056	0,034
-256,380	-67,487	0,085	0,024
-255,365	-200,000	0,017	0,169
-254,351	257,425	-0,046	0,058
-253,336	-99,161	-0,123	0,022
-252,322	385,843	-0,104	0,156
-251,307	-200,000	-0,012	0,049
-250,292	607,630	-0,033	0,061
-249,278	-14,727	0,095	-0,044
-248,263	127,525	0,055	-0,051
-247,249	158,211	0,063	0,063
-246,234	-54,209	-0,123	0,040
-245,219	-158,762	-0,090	0,004
-244,205	707,481	-0,054	-0,103
-243,190	-88,566	-0,055	0,012
-242,176	-200,000	-0,008	0,032
-241,161	-200,000	0,027	0,137
-240,146	-41,952	0,063	-0,023
-239,132	0,945	-0,072	-0,037
-238,117	-81,093	-0,165	-0,039
-237,103	238,514	-0,062	0,075
-236,088	-129,601	0,106	-0,010
-235,073	150,443	0,156	0,153
-234,059	-9,303	0,188	0,090
-233,044	-50,775	-0,149	0,050
-232,030	295,933	-0,045	-0,059
-231,015	-135,257	-0,129	-0,011
-230,000	262,357	0,036	0,045
-228,986	-155,670	-0,078	0,004
-227,971	155,805	0,024	0,024
-226,957	-22,539	0,099	0,043
-225,942	-185,455	0,101	-0,001
-224,927	104,954	0,063	0,054
-223,913	800,000	0,037	-0,079
-222,898	3,126	-0,087	-0,046
-221,884	-59,974	0,157	0,048
-220,869	-200,000	-0,019	-0,080
-219,855	-27,460	0,150	0,063
-218,840	-200,000	0,012	0,133
-217,825	74,262	0,111	0,084
-216,811	25,688	0,049	0,029
-215,796	-200,000	-0,000	0,026
-214,782	-68,690	0,083	0,023
-213,767	344,963	-0,053	0,075
-212,752	800,000	0,023	-0,059
-211,738	800,000	0,042	0,096
-210,723	-166,207	0,065	-0,002
-209,709	716,061	-0,036	-0,070
-208,694	-115,078	0,172	-0,023
-207,679	44,548	0,061	-0,040
-206,665	74,081	0,027	-0,020
-205,650	146,101	0,037	-0,036
-204,636	800,000	0,017	0,044
-203,621	105,578	-0,114	0,097
-202,606	800,000	0,013	0,029
-201,592	800,000	-0,066	0,148
-200,577	51,337	-0,186	-0,128
-199,563	-66,135	-0,035	0,010
-198,548	-81,261	0,109	-0,026
-197,533	-18,530	0,056	-0,025
-196,519	-200,000	-0,029	0,120
-195,504	98,192	-0,019	-0,015
-194,490	99,053	0,120	0,100
-193,475	472,843	-0,066	0,107
-192,460	-143,343	0,091	-0,006
-191,446	-29,735	0,075	-0,031
-190,431	-116,499	0,021	-0,003
-189,417	191,032	0,087	0,095
-188,402	312,740	0,041	-0,056
-187,387	22,894	-0,112	-0,066
-186,373	-200,000	-0,010	-0,051
-185,358	668,233	-0,050	0,094
-184,344	-200,000	-0,001	0,097
-183,329	-64,534	0,068	0,020
-182,315	-200,000	-0,016	0,059
-181,300	-139,940	0,119	0,009
-180,285	26,227	-0,024	-0,014
-179,271	-200,000	-0,018	0,105
-178,256	118,319	-0,091	-0,081
-177,242	-200,000	0,013	0,074
-176,227	-200,000	-0,021	0,197
-175,212	-110,380	0,100	0,015
-174,198	483,781	-0,032	0,052
-173,183	800,000	0,010	0,021
-172,169	-177,500	-0,093	0,002
-171,154	-89,461	-0,047	-0,010
-170,139	258,522	0,114	0,142
-169,125	-140,279	0,154	-0,011
-168,110	-115,206	0,066	0,009
-167,096	87,159	0,049	0,039
-166,081	669,040	0,029	0,054
-165,066	136,435	-0,064	-0,060
-164,052	800,000	-0,034	0,075
-163,037	167,191	-0,120	0,123
-162,023	120,947	0,048	-0,043
-161,008	50,095	-0,189	0,128
-159,993	-57,794	0,116	-0,036
-158,979	1,812	-0,008	0,004
-157,964	423,786	-0,013	0,021
-156,950	-54,592	-0,055	-0,018
-155,935	123,749	-0,033	0,030
-154,920	-200,000	-0,003	-0,152
-153,906	-200,000	-0,008	0,083
-152,891	5,872	-0,126	0,067
-151,877	-76,935	0,055	-0,014
-150,862	21,822	-0,164	-0,096
-149,847	91,302	0,021	-0,017
-148,833	800,000	0,038	-0,083
-147,818	-94,958	0,067	-0,013
-146,804	-162,981	0,113	0,004
-145,789	800,000	0,098	0,237
-144,775	-200,000	-0,012	-0,118
-143,760	-148,417	0,179	-0,010
-142,745	561,978	-0,053	-0,093
-141,731	-87,392	0,055	0,012
-140,716	-154,076	-0,047	-0,002
-139,702	5,488	0,064	-0,034
-138,687	-189,362	-0,091	0,001
-137,672	800,000	-0,038	-0,091
-136,658	238,914	0,048	0,058
-135,643	-200,000	-0,000	0,033
-134,629	8,979	-0,039	-0,021
-133,614	111,723	0,047	0,041
-132,599	181,789	0,057	-0,061
-131,585	800,000	-0,081	0,237
-130,570	-135,703	-0,095	0,008
-129,556	-200,000	0,014	-0,068
-128,541	372,300	0,076	0,111
-127,526	45,318	-0,092	-0,061
-126,512	-113,320	0,110	-0,015
-125,497	-200,000	-0,011	-0,046
-124,483	-41,367	0,223	0,082
-123,468	-200,000	0,010	0,139
-122,453	31,871	-0,095	-0,059
-121,439	-9,639	0,049	0,023
-120,424	437,028	-0,045	0,071
-119,410	-11,418	0,032	0,015
-118,395	26,129	-0,023	0,014
-117,380	-115,612	0,028	-0,004
-116,366	87,806	-0,030	-0,024
-115,351	-4,070	0,128	-0,064
-114,337	-200,000	0,003	0,064
-113,322	179,917	-0,021	0,022
-112,307	-64,905	0,023	-0,007
-111,293	-127,851	0,034	0,003
-110,278	39,029	-0,081	-0,052
-109,264	-24,818	0,105	-0,045
-108,249	-29,070	0,020	0,008
-107,234	313,336	-0,036	0,048
-106,220	-182,995	0,182	-0,002
-105,205	-200,000	-0,001	0,111
-104,191	220,328	0,109	0,125
-103,176	32,882	-0,039	0,024
-102,162	-74,649	0,146	-0,037
-101,147	-200,000	-0,026	0,165
-100,132	-200,000	0,004	-0,066
-99,118	-200,000	0,032	-0,131
-98,103	-90,676	0,035	-0,007
-97,089	-27,874	-0,099	0,041
-96,074	-200,000	0,028	0,118
-95,059	507,171	0,018	0,030
-94,045	211,261	0,089	-0,101
-93,030	-200,000	0,004	0,032
-92,016	800,000	-0,065	-0,155
-91,001	17,253	0,087	0,050
-89,986	529,955	-0,055	0,093
-88,972	775,816	-0,017	0,033
-87,957	-21,428	-0,068	0,030
-86,943	-40,943	0,114	0,042
-85,928	-200,000	-0,016	-0,075
-84,913	-25,413	0,084	-0,035
-83,899	-17,760	-0,097	0,044
-82,884	-92,595	0,141	-0,028
-81,870	-62,715	0,088	0,026
-80,855	-200,000	-0,015	0,057
-79,840	-83,883	0,049	-0,011
-78,826	181,112	0,086	0,090
-77,811	800,000	-0,028	-0,060
-76,797	17,223	0,063	-0,036
-75,782	-200,000	-0,017	-0,066
-74,767	521,856	0,067	0,113
-73,753	-200,000	-0,020	0,089
-72,738	104,336	-0,058	0,049
-71,724	800,000	0,008	-0,016
-70,709	-45,753	0,035	0,012
-69,694	-200,000	-0,025	-0,108
-68,680	-200,000	0,004	-0,027
-67,665	-14,064	0,055	0,025
-66,651	-200,000	0,001	0,034
-65,636	-136,522	-0,076	-0,006
-64,622	-36,912	0,036	0,014
-63,607	800,000	0,055	-0,128
-62,592	-165,490	-0,173	-0,005
-61,578	-200,000	-0,032	0,165
-60,563	-200,000	0,045	0,149
-59,549	800,000	0,036	0,104
-58,534	12,614	-2,007	-1,109
-57,519	-200,000	-0,108	-0,845
-56,505	-200,000	-1,151	-4,969
-55,490	108,296	0,831	0,712
-54,476	800,000	5,325	11,915
-53,461	-200,000	17,971	293,637
-52,446	800,000	730,531	2247,863
-51,432	540,893	1647,534	2826,865
-50,417	109,150	1637,168	1405,347
-49,403	74,412	1287,946	970,270
-48,388	31,225	1027,762	631,488
-47,373	20,095	989,596	571,319
-46,359	18,212	977,178	557,955
-45,344	15,124	973,285	545,604
-44,330	15,367	971,670	545,474
-43,315	14,822	969,886	542,670
-42,300	14,830	968,768	542,049
-41,286	14,814	967,840	541,458
-40,271	14,858	966,813	541,004
-39,257	14,832	965,964	540,424
-38,242	14,895	964,972	540,052
-37,227	14,822	964,230	539,378
-36,213	14,839	963,165	538,817
-35,198	14,774	962,462	538,191
-34,184	14,828	961,831	537,993
-33,169	14,765	960,911	537,252
-32,154	14,803	959,984	536,833
-31,140	14,847	958,974	536,390
-30,125	14,797	958,323	535,844
-29,111	14,816	957,559	535,455
-28,096	14,826	956,660	534,963
-27,082	14,851	956,112	534,717
-26,067	14,823	955,305	534,154
-25,052	14,862	954,545	533,834
-24,038	14,803	953,825	533,221
-23,023	14,868	953,117	533,012
-22,009	14,830	952,860	532,725
-20,994	14,887	951,963	532,386
-19,979	14,845	951,342	531,882
-18,965	14,820	950,439	531,276
-17,950	14,818	950,228	531,132
-16,936	14,759	949,490	530,508
-15,921	14,792	948,782	530,198
-14,906	14,726	948,045	529,555
-13,892	14,760	947,483	529,326
-12,877	14,686	946,692	528,629
-11,863	14,649	946,184	528,207
-10,848	14,676	945,586	527,937
-9,833	14,870	945,075	528,249
-8,819	14,783	944,534	527,649
-7,804	14,767	943,862	527,200
-6,790	14,681	943,334	526,612
-5,775	14,736	942,704	526,413
-4,760	14,705	942,176	526,000
-3,746	14,704	941,546	525,623
-2,731	14,597	940,672	524,778
-1,717	14,497	940,276	524,219
-0,702	14,539	939,577	523,941
0,313	14,347	938,850	523,719
1,327	17,458	936,610	532,227
2,342	26,118	793,667	473,942
3,356	22,550	459,233	268,745
4,371	-4,098	315,731	156,304
5,386	-8,179	297,730	143,227
6,400	-10,225	291,697	138,270
7,415	-10,392	289,031	136,830
8,429	-10,594	287,548	135,916
9,444	-10,732	286,841	135,434
10,459	-10,580	285,979	135,164
11,473	-10,670	285,609	134,889
12,488	-10,536	285,081	134,759
13,502	-10,621	284,474	134,377
14,517	-10,456	284,005	134,304
15,531	-10,638	283,707	133,975
16,546	-10,448	283,242	133,927
17,561	-10,505	282,839	133,669
18,575	-10,552	282,704	133,548
19,590	-10,392	282,130	133,419
20,604	-10,476	281,910	133,223
21,619	-10,314	281,429	133,139
22,634	-10,478	281,179	132,851
23,648	-10,757	280,947	132,462
24,663	-10,396	280,719	132,689
25,677	-10,439	280,267	132,422
26,692	-10,429	280,039	132,312
27,707	-10,541	279,747	132,056
28,721	-10,463	279,431	131,969
29,736	-10,579	279,220	131,747
30,750	-10,529	278,999	131,679
31,765	-10,550	278,672	131,493
32,780	-10,593	278,567	131,390
33,794	-10,546	278,306	131,300
34,809	-10,390	278,030	131,306
35,823	-10,785	277,812	130,817
36,838	-10,497	277,403	130,885
37,853	-10,635	277,192	130,644
38,867	-10,725	276,949	130,433
39,882	-10,454	276,711	130,564
40,896	-10,557	276,442	130,329
41,911	-10,604	276,303	130,207
42,926	-10,440	275,908	130,164
43,940	-10,565	275,692	129,933
44,955	-10,524	275,508	129,874
45,969	-10,693	275,296	129,603
46,984	-10,773	275,034	129,393
47,999	-10,928	274,686	129,072
49,013	-10,836	274,523	129,071
50,028	-11,017	274,311	128,790
51,042	-11,134	274,075	128,559
52,057	-11,108	273,653	128,374
53,071	-11,274	273,625	128,194
54,086	-10,990	273,288	128,289
55,101	-10,914	273,284	128,347
56,115	-10,857	272,898	128,207
57,130	-10,516	272,860	128,495
58,144	-10,489	272,581	128,377
59,159	-10,351	272,307	128,365
60,174	-10,456	272,194	128,202
61,188	-10,452	271,971	128,090
62,203	-10,394	271,744	128,026
63,217	-10,384	271,551	127,932
64,232	-10,345	271,247	127,813
65,247	-10,347	271,125	127,743
66,261	-10,464	270,731	127,438
67,276	-10,634	270,547	127,183
68,290	-10,766	270,319	126,943
69,305	-10,849	270,054	126,731
70,320	-10,985	269,911	126,528
71,334	-10,631	269,632	126,711
72,349	-10,518	269,575	126,776
73,363	-10,366	269,313	126,781
74,378	-10,489	269,063	126,539
75,393	-10,473	268,947	126,488
76,407	-10,356	268,731	126,482
77,422	-10,372	268,481	126,339
78,436	-10,547	268,225	126,047
79,451	-10,408	267,990	126,052
80,466	-10,440	267,616	125,836
81,480	-10,660	267,426	125,536
82,495	-10,707	267,286	125,416
83,509	-10,445	267,189	125,597
84,524	-10,560	266,934	125,362
85,539	-10,864	266,730	124,979
86,553	-10,661	266,472	125,031
87,568	-10,624	266,133	124,894
88,582	-10,705	266,208	124,845
89,597	-10,736	265,903	124,662
90,611	-10,733	265,795	124,604
91,626	-10,539	265,769	124,756
92,641	-10,325	265,199	124,670
93,655	-10,661	265,204	124,359
94,670	-10,606	264,909	124,258
95,684	-10,589	264,623	124,128
96,699	-10,530	264,675	124,195
97,714	-10,492	264,278	124,031
98,728	-10,678	264,121	123,780
99,743	-10,607	263,834	123,697
100,757	-10,846	263,633	123,378
101,772	-10,568	263,362	123,489
102,787	-10,521	263,269	123,477
103,801	-10,528	263,178	123,417
104,816	-10,448	262,922	123,357
105,830	-10,294	262,678	123,369
106,845	-10,191	262,577	123,403
107,860	-10,403	262,277	123,062
108,874	-10,543	262,098	122,842
109,889	-10,511	262,034	122,829
110,903	-10,669	261,749	122,545
111,918	-10,628	261,539	122,472
112,933	-10,462	261,297	122,494
113,947	-10,291	261,011	122,502
114,962	-10,419	260,944	122,346
115,976	-10,395	260,743	122,262
116,991	-10,448	260,470	122,076
118,006	-10,479	260,407	122,008
119,020	-10,600	260,343	121,860
120,035	-10,437	260,115	121,887
121,049	-10,589	259,996	121,686
122,064	-10,515	259,744	121,623
123,079	-10,475	259,491	121,529
124,093	-10,394	259,417	121,555
125,108	-10,692	258,976	121,075
126,122	-10,772	258,768	120,897
127,137	-10,722	258,481	120,796
128,151	-10,622	258,311	120,794
129,166	-10,744	258,135	120,594
130,181	-10,607	257,927	120,605
131,195	-10,706	257,809	120,452
132,210	-10,521	257,610	120,511
133,224	-10,520	257,518	120,458
134,239	-10,423	257,326	120,442
135,254	-10,386	257,026	120,323
136,268	-10,474	256,864	120,159
137,283	-10,775	256,755	119,836
138,297	-10,818	256,502	119,670
139,312	-10,900	256,261	119,475
140,327	-10,700	256,246	119,631
141,341	-10,493	255,985	119,679
142,356	-10,436	255,758	119,611
143,370	-10,457	255,723	119,566
144,385	-10,431	255,600	119,520
145,400	-10,257	255,310	119,524
146,414	-10,163	255,193	119,540
147,429	-10,219	254,869	119,330
148,443	-10,323	254,825	119,208
149,458	-10,217	254,693	119,227
150,473	-10,153	254,326	119,099
151,487	-10,471	254,223	118,768
152,502	-10,169	254,110	118,964
153,516	-10,316	253,988	118,770
154,531	-10,213	253,684	118,705
155,546	-10,386	253,386	118,407
156,560	-10,260	253,370	118,497
157,575	-10,330	252,994	118,250
158,589	-10,523	252,887	118,026
159,604	-10,387	252,799	118,090
160,619	-10,386	252,567	117,971
161,633	-10,386	252,483	117,922
162,648	-10,325	252,319	117,887
163,662	-10,275	251,896	117,721
164,677	-10,168	251,825	117,768
165,692	-10,407	251,755	117,522
166,706	-10,379	251,629	117,476
167,721	-10,272	251,295	117,401
168,735	-10,296	251,172	117,312
169,750	-10,323	250,892	117,149
170,764	-10,312	250,900	117,151
171,779	-10,081	250,802	117,291
172,794	-10,331	250,545	116,948
173,808	-10,409	250,309	116,762
174,823	-10,417	249,983	116,592
175,837	-10,787	249,743	116,158
176,852	-10,372	249,831	116,539
177,867	-10,520	249,795	116,387
178,881	-10,446	249,683	116,387
179,896	-10,270	249,376	116,382
180,910	-10,286	249,267	116,306
181,925	-10,293	248,993	116,163
182,940	-10,198	248,783	116,133
183,954	-10,261	248,747	116,053
184,969	-10,383	248,547	115,848
185,983	-10,320	248,332	115,790
186,998	-10,391	248,259	115,687
188,013	-10,238	247,965	115,667
189,027	-10,239	247,923	115,636
190,042	-10,359	247,736	115,439
191,056	-10,211	247,386	115,388
192,071	-10,297	247,157	115,199
193,086	-10,465	247,207	115,073
194,100	-10,469	246,965	114,947
195,115	-10,239	246,762	115,033
196,129	-10,084	246,541	115,048
197,144	-10,064	246,283	114,935
198,159	-10,573	246,157	114,444
199,173	-10,299	246,038	114,605
200,188	-10,550	245,727	114,242
201,202	-10,534	245,629	114,200
202,217	-10,768	245,233	113,812
203,232	-10,810	245,070	113,692
204,246	-10,482	245,099	113,966
205,261	-10,163	244,886	114,119
206,275	-11,279	244,433	112,981
207,290	-7,033	246,282	117,340
208,304	0,902	248,681	125,086
209,319	4,003	249,564	128,103
210,334	4,239	249,588	128,299
211,348	4,785	249,269	128,578
212,363	4,914	249,255	128,667
213,377	4,823	249,244	128,574
214,392	4,826	249,018	128,449
215,407	4,885	248,701	128,322
216,421	4,716	248,679	128,159
217,436	4,746	248,587	128,125
218,450	5,191	248,397	128,384
219,465	4,736	248,150	127,869
220,480	4,411	248,107	127,567
221,494	4,603	247,787	127,549
222,509	4,487	247,709	127,402
223,523	4,565	247,517	127,356
224,538	4,138	247,089	126,774
225,553	4,271	247,085	126,870
226,567	4,288	246,883	126,768
227,582	4,506	246,638	126,810
228,596	4,424	246,617	126,721
229,611	3,912	246,466	126,212
230,626	4,103	246,060	126,149
231,640	4,143	246,071	126,176
232,655	4,393	245,839	126,251
233,669	4,055	245,749	125,917
234,684	4,110	245,454	125,799
235,699	4,352	245,601	126,061
236,713	4,609	245,258	126,084
237,728	4,348	244,982	125,718
238,742	4,144	244,968	125,533
239,757	4,017	244,710	125,286
240,772	4,164	244,525	125,301
241,786	4,349	244,466	125,409
242,801	4,123	244,198	125,077
243,815	4,171	244,109	125,059
244,830	4,263	244,070	125,102
245,844	4,496	243,832	125,158
246,859	4,264	243,582	124,830
247,874	4,201	243,348	124,649
248,888	4,454	243,238	124,786
249,903	4,354	243,208	124,679
250,917	4,412	243,171	124,696
251,932	4,718	242,941	124,813
252,947	4,360	242,832	124,458
253,961	4,235	242,551	124,202
254,976	4,411	242,297	124,202
255,990	4,513	242,358	124,304
257,005	4,156	242,087	123,868
258,020	3,891	241,906	123,551
259,034	4,219	241,677	123,686
260,049	4,296	241,511	123,652
261,063	4,049	241,241	123,305
262,078	4,040	241,238	123,285
263,093	4,464	241,020	123,502
264,107	4,489	240,932	123,465
265,122	4,299	240,887	123,280
266,136	4,363	240,779	123,264
267,151	4,609	240,642	123,380
268,166	4,245	240,311	122,909
269,180	4,097	240,109	122,677
270,195	4,593	240,321	123,169
271,209	4,971	240,009	123,299
272,224	4,234	239,795	122,593
273,239	3,970	239,529	122,236
274,253	4,029	239,294	122,152
275,268	4,450	239,328	122,493
276,282	4,399	239,109	122,329
277,297	4,142	238,967	122,042
278,312	4,396	238,783	122,139
279,326	4,366	238,718	122,070
280,341	4,339	238,563	121,959
281,355	4,283	238,377	121,808
282,370	4,410	238,280	121,849
283,384	4,423	238,166	121,789
284,399	4,283	237,762	121,462
285,414	3,999	237,600	121,144
286,428	4,249	237,608	121,335
287,443	4,044	237,418	121,066
288,457	4,238	237,436	121,217
289,472	4,365	237,267	121,219
290,487	4,449	236,969	121,122
291,501	4,003	236,853	120,702
292,516	3,904	236,662	120,517
293,530	3,895	236,558	120,445
294,545	4,438	236,451	120,805
295,560	4,251	236,281	120,562
296,574	3,992	236,059	120,236
297,589	4,117	235,844	120,212
298,603	4,253	236,035	120,405
299,618	4,602	235,721	120,507
300,633	4,204	235,688	120,169
301,647	4,337	235,462	120,146
302,662	4,703	235,500	120,440
303,676	4,606	235,205	120,203
304,691	4,540	234,917	119,994
305,706	4,591	234,908	120,018
306,720	4,770	234,742	120,062
307,735	4,706	234,442	119,848
308,749	4,128	234,468	119,403
309,764	4,068	234,294	119,257
310,779	4,228	233,890	119,164
311,793	3,883	233,709	118,795
312,808	3,785	233,659	118,683
313,822	3,660	233,480	118,485
314,837	3,873	233,305	118,550
315,852	4,023	233,191	118,597
316,866	4,520	233,147	118,947
317,881	4,593	233,195	119,017
318,895	4,677	232,900	118,920
319,910	4,622	232,753	118,792
320,925	4,182	232,557	118,344
321,939	3,884	232,375	118,013
322,954	4,438	232,508	118,494
323,968	4,655	232,189	118,488
324,983	4,286	232,063	118,130
325,997	4,691	231,761	118,276
327,012	4,596	231,794	118,210
328,027	4,228	231,596	117,816
329,041	4,600	231,620	118,103
330,056	4,909	231,585	118,311
331,070	4,825	231,418	118,150
332,085	4,527	231,082	117,741
333,100	4,467	230,716	117,498
334,114	4,486	230,603	117,445
335,129	4,615	230,557	117,509
336,143	4,691	230,442	117,497
337,158	4,668	230,328	117,412
338,173	4,354	230,087	117,040
339,187	4,069	229,986	116,763
340,202	4,369	229,870	116,920
341,216	4,293	229,572	116,700
342,231	4,326	229,531	116,695
343,246	4,551	229,231	116,702
344,260	4,415	229,281	116,614
345,275	4,549	229,204	116,666
346,289	4,585	229,139	116,649
347,304	4,795	228,892	116,671
348,319	4,605	228,702	116,421
349,333	4,601	228,332	116,219
350,348	4,375	228,234	115,989
351,362	4,391	228,175	115,961
352,377	4,117	227,973	115,642
353,392	3,888	227,809	115,377
354,406	4,241	227,728	115,590
355,421	194,663	1321,784	1395,581
356,435	156,052	1455,055	1395,552
