DTS Sentinel unit serial number:	SN410029Multiplexer serial number:	ORYXHardware model number:	OX2-SRSoftware version number:	ORYX F/W v4,00 Oryx Data Collector v3.7.2.0data status	okinstallation	B5 Nyhavnadifferential loss correction	single-endedforward channel	channel 2reverse channel	N/Adate	2023/12/12time	01:12:13forward acquisition time	300,00reverse acquisition time	0,00gamma	499,1914k internal	0,3156k external	0,3156temperature offset calibration	1,0000default loss term (dB/km)	0,3820temperature slope calibration	1,0000multiplexer offset coefficient	1,0000multiplexer slope coefficient	1,0000fibre end	0,00T internal ref (°C)	15,97T ext. ref 1 (°C)	-0,46T ext. ref 2 (°C)	-0,75length (m)	temperature (°C)	Stokes	anti-Stokes-744,400	-200,000	0,017	0,076
-743,385	-62,585	-0,247	0,075
-742,371	-53,134	0,190	0,064
-741,356	-126,110	-0,289	-0,032
-740,342	-36,562	0,022	0,009
-739,327	-61,348	-0,272	0,084
-738,312	-174,537	0,212	0,004
-737,298	-105,716	-0,263	0,044
-736,283	12,079	0,151	-0,086
-735,269	3,113	-0,173	0,092
-734,254	-68,963	0,129	-0,036
-733,239	-199,235	-0,372	-0,001
-732,225	-119,213	0,113	-0,014
-731,210	-200,000	-0,009	0,097
-730,196	800,000	0,018	0,038
-729,181	207,025	0,056	-0,065
-728,167	193,980	-0,057	0,064
-727,152	-200,000	0,029	-0,149
-726,137	-200,000	0,041	-0,152
-725,123	31,109	-0,117	-0,074
-724,108	-200,000	0,018	-0,067
-723,094	-37,960	-0,129	-0,050
-722,079	-97,336	0,142	-0,027
-721,064	119,287	0,062	-0,056
-720,050	784,879	0,047	-0,096
-719,035	456,459	0,053	0,087
-718,021	800,000	-0,019	0,060
-717,006	800,000	-0,048	-0,149
-715,991	-200,000	-0,026	-0,165
-714,977	-200,000	-0,022	-0,080
-713,962	-169,748	-0,089	-0,002
-712,948	-200,000	0,010	0,115
-711,933	-94,188	-0,048	0,010
-710,918	800,000	-0,033	0,086
-709,904	223,913	-0,127	-0,151
-708,889	-200,000	-0,000	0,017
-707,875	-97,407	0,075	-0,014
-706,860	66,880	-0,061	-0,046
-705,845	82,443	-0,068	-0,054
-704,831	-200,000	-0,011	-0,123
-703,816	-200,000	0,002	-0,145
-702,802	95,046	0,066	-0,056
-701,787	-24,761	-0,096	-0,042
-700,772	-110,396	-0,092	-0,014
-699,758	292,066	-0,002	-0,002
-698,743	235,356	-0,017	-0,021
-697,729	800,000	0,025	-0,075
-696,714	-99,052	0,096	0,018
-695,699	83,744	-0,037	-0,030
-694,685	-200,000	0,002	0,071
-693,670	800,000	0,079	-0,201
-692,656	450,002	0,045	-0,073
-691,641	800,000	0,030	-0,091
-690,627	-116,191	0,014	-0,002
-689,612	800,000	0,024	0,054
-688,597	-200,000	-0,044	-0,166
-687,583	-200,000	0,043	-0,193
-686,568	-179,348	-0,115	0,002
-685,554	372,232	-0,069	-0,103
-684,539	301,284	-0,063	0,085
-683,524	306,110	0,079	-0,108
-682,510	-200,000	0,020	-0,168
-681,495	-200,000	-0,000	-0,067
-680,481	-87,176	-0,090	0,020
-679,466	594,787	0,044	-0,080
-678,451	263,476	-0,068	-0,087
-677,437	182,609	0,051	-0,055
-676,422	-200,000	-0,008	0,050
-675,408	-20,196	0,064	-0,029
-674,393	-200,000	-0,107	-0,000
-673,378	-40,617	-0,058	-0,022
-672,364	-200,000	-0,031	0,104
-671,349	-200,000	0,003	0,039
-670,335	-200,000	0,030	0,112
-669,320	-200,000	-0,000	-0,047
-668,305	-90,455	-0,057	-0,012
-667,291	39,917	-0,074	0,049
-666,276	800,000	0,029	-0,067
-665,262	259,328	0,047	-0,060
-664,247	674,670	0,053	-0,102
-663,232	-200,000	0,020	-0,085
-662,218	3,746	0,091	0,049
-661,203	-200,000	0,012	-0,165
-660,189	-74,570	0,034	0,009
-659,174	-200,000	0,034	-0,184
-658,159	283,810	-0,052	-0,069
-657,145	-200,000	0,010	-0,086
-656,130	323,547	-0,074	-0,103
-655,116	-200,000	-0,024	0,118
-654,101	-200,000	0,030	0,131
-653,086	97,148	-0,026	-0,022
-652,072	-51,427	-0,088	0,030
-651,057	427,255	-0,107	-0,170
-650,043	158,980	-0,124	-0,126
-649,028	-200,000	-0,004	0,059
-648,014	800,000	0,030	0,093
-646,999	37,962	-0,090	0,059
-645,984	-200,000	0,008	-0,147
-644,970	121,528	-0,041	-0,037
-643,955	800,000	-0,026	-0,071
-642,941	-15,225	-0,045	-0,021
-641,926	464,851	-0,015	-0,025
-640,911	119,139	-0,074	-0,067
-639,897	-200,000	-0,044	0,143
-638,882	-183,686	-0,076	-0,001
-637,868	547,336	-0,011	0,019
-636,853	-200,000	0,001	-0,065
-635,838	-16,364	-0,102	-0,047
-634,824	-200,000	-0,002	0,107
-633,809	63,760	-0,080	0,059
-632,795	-57,523	0,074	-0,024
-631,780	246,725	-0,038	-0,047
-630,765	83,979	-0,045	0,036
-629,751	77,051	-0,060	0,047
-628,736	115,964	-0,119	-0,107
-627,722	800,000	-0,067	-0,147
-626,707	-2,310	0,030	-0,016
-625,692	-65,244	0,078	0,023
-624,678	724,815	-0,022	-0,044
-623,663	-200,000	-0,000	-0,032
-622,649	-112,397	-0,049	-0,007
-621,634	-41,990	-0,116	-0,043
-620,619	422,869	0,026	-0,042
-619,605	-134,309	0,016	0,001
-618,590	-18,099	0,078	-0,035
-617,576	-200,000	0,035	0,134
-616,561	479,382	0,029	-0,048
-615,546	208,124	-0,067	-0,077
-614,532	103,243	-0,025	0,022
-613,517	-47,628	-0,113	-0,040
-612,503	-200,000	-0,001	0,056
-611,488	135,545	0,052	0,049
-610,474	156,198	0,064	0,065
-609,459	-66,501	0,101	-0,029
-608,444	-142,310	-0,048	-0,003
-607,430	54,300	-0,142	-0,100
-606,415	-2,029	-0,064	0,033
-605,401	-200,000	-0,010	0,087
-604,386	18,339	0,130	0,076
-603,371	187,953	-0,065	0,071
-602,357	-82,802	0,044	0,010
-601,342	89,172	-0,129	0,106
-600,328	191,351	0,060	-0,066
-599,313	-200,000	-0,017	-0,212
-598,298	800,000	-0,019	-0,048
-597,284	-200,000	0,011	-0,086
-596,269	-59,742	0,084	0,026
-595,255	135,381	-0,046	-0,044
-594,240	800,000	-0,043	-0,095
-593,225	288,104	-0,023	0,031
-592,211	-128,060	-0,138	0,014
-591,196	-200,000	0,029	-0,098
-590,182	-28,793	-0,054	0,023
-589,167	-99,819	-0,125	0,023
-588,152	293,021	-0,028	-0,037
-587,138	406,116	-0,078	-0,122
-586,123	132,839	-0,082	-0,078
-585,109	54,568	-0,062	0,044
-584,094	-72,084	-0,125	-0,034
-583,079	-200,000	0,015	-0,066
-582,065	27,238	-0,082	-0,050
-581,050	28,935	0,065	-0,040
-580,036	22,950	-0,115	-0,069
-579,021	-60,587	-0,096	0,030
-578,006	-29,351	-0,070	-0,029
-576,992	-200,000	0,020	0,121
-575,977	93,445	0,114	0,094
-574,963	-200,000	0,004	0,081
-573,948	-33,172	-0,055	0,022
-572,934	-55,567	0,165	0,054
-571,919	-200,000	0,009	0,090
-570,904	229,778	-0,072	0,087
-569,890	-34,917	0,144	-0,057
-568,875	576,825	0,051	-0,091
-567,861	58,111	0,065	0,047
-566,846	-143,301	0,137	-0,010
-565,831	37,851	-0,080	-0,052
-564,817	99,192	-0,039	0,033
-563,802	88,599	-0,102	-0,083
-562,788	53,875	-0,094	-0,066
-561,773	-53,174	0,036	-0,012
-560,758	141,037	0,036	-0,035
-559,744	337,286	-0,027	0,038
-558,729	-200,000	0,017	0,109
-557,715	-105,584	-0,046	-0,008
-556,700	95,926	-0,086	-0,072
-555,685	67,464	0,039	-0,029
-554,671	-200,000	-0,008	-0,061
-553,656	-200,000	-0,030	-0,134
-552,642	-200,000	0,017	-0,108
-551,627	-151,649	-0,115	0,006
-550,612	-200,000	0,006	0,046
-549,598	800,000	-0,053	-0,119
-548,583	800,000	-0,031	-0,079
-547,569	-200,000	-0,001	-0,002
-546,554	707,846	0,034	0,065
-545,539	138,136	0,085	0,081
-544,525	-52,774	-0,092	-0,031
-543,510	-53,963	-0,048	-0,016
-542,496	-200,000	0,010	0,093
-541,481	800,000	-0,014	-0,033
-540,466	-200,000	-0,017	-0,063
-539,452	50,994	-0,130	-0,090
-538,437	-39,836	0,192	0,073
-537,423	-200,000	0,013	0,077
-536,408	-200,000	-0,023	-0,086
-535,393	103,988	-0,063	-0,054
-534,379	-200,000	-0,016	-0,231
-533,364	221,806	-0,084	-0,099
-532,350	84,278	0,078	0,063
-531,335	-86,538	0,050	0,011
-530,321	-200,000	0,014	0,089
-529,306	94,989	-0,037	-0,030
-528,291	297,734	-0,055	0,074
-527,277	314,431	-0,107	-0,148
-526,262	-200,000	-0,020	-0,153
-525,248	-85,157	0,129	-0,029
-524,233	800,000	-0,015	-0,044
-523,218	-70,031	0,112	-0,031
-522,204	26,652	0,043	0,026
-521,189	126,179	0,082	-0,076
-520,175	45,418	-0,038	0,026
-519,160	367,337	0,070	-0,104
-518,145	91,876	-0,019	0,016
-517,131	-200,000	-0,018	0,058
-516,116	-200,000	-0,001	-0,052
-515,102	-20,388	-0,027	-0,012
-514,087	800,000	-0,047	0,132
-513,072	-35,326	0,127	-0,050
-512,058	-200,000	0,009	0,043
-511,043	321,068	-0,052	-0,072
-510,029	-168,183	0,187	-0,005
-509,014	-200,000	-0,004	-0,064
-507,999	382,690	-0,057	0,085
-506,985	771,003	0,005	0,011
-505,970	-180,650	-0,037	-0,001
-504,956	-200,000	-0,025	0,084
-503,941	-27,454	0,171	-0,072
-502,926	211,997	0,067	-0,077
-501,912	345,965	0,037	0,054
-500,897	22,388	-0,061	0,036
-499,883	-17,420	-0,016	0,008
-498,868	246,520	-0,028	-0,035
-497,853	152,472	-0,048	0,048
-496,839	16,436	-0,018	-0,011
-495,824	-180,088	0,058	-0,001
-494,810	238,936	0,118	0,143
-493,795	-78,824	0,185	0,046
-492,781	40,756	0,093	-0,061
-491,766	-200,000	-0,035	-0,221
-490,751	-79,263	0,053	-0,013
-489,737	-72,389	0,073	0,020
-488,722	-130,559	0,042	0,004
-487,708	800,000	-0,037	0,114
-486,693	34,363	-0,092	0,058
-485,678	800,000	-0,004	-0,011
-484,664	-38,578	-0,022	0,008
-483,649	-132,216	0,036	0,003
-482,635	-181,692	0,075	-0,001
-481,620	800,000	0,053	0,120
-480,605	-200,000	-0,007	0,147
-479,591	-147,237	0,058	0,004
-478,576	-148,523	-0,120	0,007
-477,562	-96,424	-0,074	0,014
-476,547	-27,745	-0,172	-0,072
-475,532	372,776	0,058	-0,087
-474,518	763,926	0,049	-0,098
-473,503	-119,981	0,114	0,014
-472,489	800,000	-0,004	0,009
-471,474	-36,892	-0,063	0,025
-470,459	30,115	0,120	-0,075
-469,445	-67,524	0,047	0,013
-468,430	366,686	0,056	-0,082
-467,416	65,283	0,094	-0,069
-466,401	-102,765	-0,034	0,006
-465,386	315,342	-0,071	-0,098
-464,372	-200,000	0,021	-0,127
-463,357	87,835	-0,111	0,090
-462,343	632,734	0,032	-0,058
-461,328	9,463	0,052	-0,029
-460,313	-141,057	0,169	0,012
-459,299	-107,617	-0,078	0,012
-458,284	-200,000	0,014	0,078
-457,270	-5,623	0,084	0,042
-456,255	-10,963	-0,020	0,010
-455,241	800,000	0,053	-0,112
-454,226	-156,869	-0,094	0,004
-453,211	-200,000	0,011	-0,081
-452,197	-91,856	0,048	0,010
-451,182	-200,000	0,011	0,117
-450,168	558,461	0,074	0,132
-449,153	1,467	0,049	0,025
-448,138	-90,457	0,177	0,037
-447,124	-160,970	-0,046	0,002
-446,109	137,506	-0,064	-0,061
-445,095	-200,000	-0,026	-0,112
-444,080	-200,000	-0,025	0,124
-443,065	272,593	-0,163	-0,211
-442,051	1,046	-0,061	-0,032
-441,036	-10,629	0,046	0,022
-440,022	-200,000	-0,028	-0,138
-439,007	26,566	-0,061	-0,037
-437,992	236,940	-0,089	0,108
-436,978	-63,547	0,159	0,047
-435,963	-200,000	0,008	0,034
-434,949	100,486	0,064	0,054
-433,934	-54,845	0,096	-0,031
-432,919	-74,014	-0,159	-0,042
-431,905	-17,085	0,042	-0,019
-430,890	-144,048	-0,078	0,005
-429,876	-136,356	0,190	0,016
-428,861	144,007	-0,034	0,033
-427,846	446,982	-0,043	0,069
-426,832	33,632	-0,090	0,057
-425,817	113,241	-0,137	0,121
-424,803	339,909	0,058	0,082
-423,788	-200,000	-0,027	0,128
-422,773	111,529	-0,082	0,072
-421,759	219,645	0,022	-0,025
-420,744	59,054	0,030	-0,022
-419,730	192,940	-0,065	0,071
-418,715	-17,371	-0,043	0,020
-417,701	41,843	-0,067	-0,044
-416,686	3,311	0,075	0,040
-415,671	-82,035	0,079	0,019
-414,657	-200,000	-0,011	0,116
-413,642	442,825	-0,034	0,055
-412,628	22,292	0,025	-0,015
-411,613	376,067	-0,070	-0,105
-410,598	469,650	0,073	-0,120
-409,584	800,000	-0,032	-0,096
-408,569	170,266	0,052	-0,055
-407,555	87,278	0,104	0,083
-406,540	-200,000	0,020	0,095
-405,525	-200,000	-0,020	0,083
-404,511	495,545	0,025	-0,042
-403,496	131,400	0,051	-0,047
-402,482	800,000	0,060	-0,173
-401,467	-115,292	-0,037	0,005
-400,452	149,722	0,085	-0,084
-399,438	-44,478	0,061	0,022
-398,423	-200,000	-0,012	-0,117
-397,409	100,879	-0,060	-0,051
-396,394	-200,000	0,026	-0,167
-395,379	32,282	0,016	-0,010
-394,365	-171,606	-0,046	-0,001
-393,350	375,628	0,066	0,098
-392,336	-200,000	0,048	0,255
-391,321	176,735	-0,062	0,066
-390,306	-124,595	-0,047	0,005
-389,292	1,988	0,218	-0,114
-388,277	684,065	0,088	0,167
-387,263	800,000	0,051	0,130
-386,248	166,933	0,097	0,100
-385,233	800,000	0,020	0,045
-384,219	800,000	0,009	-0,026
-383,204	-16,665	-0,066	0,030
-382,190	70,626	-0,020	-0,015
-381,175	800,000	-0,016	0,042
-380,160	-200,000	0,003	0,055
-379,146	-144,394	0,184	-0,012
-378,131	-167,380	0,147	-0,004
-377,117	-48,682	-0,122	-0,042
-376,102	271,568	-0,078	-0,101
-375,088	8,939	0,112	-0,061
-374,073	-83,671	-0,056	0,013
-373,058	-79,442	0,136	-0,033
-372,044	-64,011	0,160	-0,047
-371,029	87,988	0,027	-0,022
-370,015	-200,000	0,002	-0,060
-369,000	677,004	-0,061	0,115
-367,985	-76,147	-0,108	-0,027
-366,971	76,232	0,144	-0,111
-365,956	-64,513	0,103	-0,030
-364,942	267,511	0,058	-0,074
-363,927	-3,070	-0,074	-0,038
-362,912	-200,000	-0,029	0,092
-361,898	155,464	0,142	0,142
-360,883	201,130	0,072	-0,081
-359,869	-25,592	-0,070	0,030
-358,854	342,993	-0,108	0,154
-357,839	-200,000	-0,008	0,090
-356,825	687,262	0,064	0,123
-355,810	275,835	-0,035	-0,045
-354,796	-200,000	-0,010	-0,050
-353,781	-144,017	-0,045	0,003
-352,766	-27,604	-0,030	-0,013
-351,752	-200,000	-0,013	-0,044
-350,737	-92,392	0,101	0,020
-349,723	203,650	0,028	-0,032
-348,708	23,446	0,157	0,094
-347,693	800,000	-0,043	-0,091
-346,679	-200,000	0,029	-0,143
-345,664	-200,000	-0,027	-0,124
-344,650	154,088	-0,063	0,063
-343,635	-200,000	-0,029	0,097
-342,620	338,967	0,031	0,043
-341,606	-200,000	0,008	0,136
-340,591	-37,295	0,048	-0,018
-339,577	800,000	-0,051	-0,110
-338,562	562,298	-0,077	-0,135
-337,548	226,872	-0,016	-0,019
-336,533	76,930	-0,078	0,060
-335,518	-126,596	0,065	0,007
-334,504	-47,619	0,107	-0,038
-333,489	-166,303	-0,101	0,003
-332,475	509,943	-0,037	-0,062
-331,460	-200,000	0,006	0,129
-330,445	217,228	-0,084	-0,098
-329,431	405,286	0,018	0,028
-328,416	648,282	0,026	0,049
-327,402	38,431	-0,045	0,029
-326,387	-200,000	0,018	0,181
-325,372	389,641	-0,026	-0,039
-324,358	-200,000	0,025	-0,093
-323,343	800,000	-0,069	-0,161
-322,329	-200,000	-0,021	-0,076
-321,314	2,476	0,059	-0,031
-320,299	143,375	-0,067	-0,064
-319,285	-82,579	-0,081	0,019
-318,270	800,000	-0,019	0,052
-317,256	-143,363	-0,125	-0,009
-316,241	-200,000	0,001	-0,104
-315,226	-40,373	0,139	0,052
-314,212	-27,760	0,148	0,062
-313,197	629,156	0,053	0,098
-312,183	-200,000	-0,014	-0,058
-311,168	-200,000	-0,034	-0,133
-310,153	247,667	-0,058	-0,071
-309,139	118,672	0,048	-0,043
-308,124	-200,000	-0,058	0,191
-307,110	260,380	0,096	0,121
-306,095	-200,000	0,020	0,081
-305,080	-189,037	-0,128	-0,001
-304,066	-200,000	0,002	0,057
-303,051	-200,000	-0,029	-0,117
-302,037	45,798	-0,085	-0,057
-301,022	120,546	0,090	-0,081
-300,008	-200,000	-0,009	0,076
-298,993	-200,000	0,019	0,070
-297,978	391,267	0,059	0,088
-296,964	-108,650	0,124	-0,019
-295,949	-121,919	-0,045	-0,005
-294,935	-195,043	-0,079	0,000
-293,920	800,000	0,066	0,152
-292,905	36,330	-0,075	0,048
-291,891	-188,061	0,231	0,002
-290,876	800,000	-0,008	-0,023
-289,862	95,862	-0,064	0,053
-288,847	800,000	0,056	-0,116
-287,832	-19,544	-0,034	-0,015
-286,818	415,675	-0,055	-0,086
-285,803	495,463	0,073	0,122
-284,789	112,179	-0,065	0,057
-283,774	-90,176	-0,095	-0,020
-282,759	172,381	0,054	0,056
-281,745	-200,000	-0,017	0,116
-280,730	-29,727	-0,127	0,052
-279,716	1,726	-0,085	-0,044
-278,701	-15,275	0,060	0,028
-277,686	361,829	0,025	0,037
-276,672	224,747	-0,056	0,065
-275,657	296,613	0,051	0,068
-274,643	-68,373	-0,026	-0,007
-273,628	-200,000	-0,022	-0,177
-272,613	100,505	-0,052	-0,044
-271,599	-19,311	0,122	-0,054
-270,584	-52,970	-0,042	-0,014
-269,570	132,930	0,050	-0,047
-268,555	51,769	-0,045	0,031
-267,540	-109,691	-0,124	-0,019
-266,526	55,666	0,054	-0,038
-265,511	-14,219	0,107	-0,050
-264,497	204,531	0,055	-0,062
-263,482	292,177	-0,037	0,049
-262,467	-42,988	-0,089	0,032
-261,453	241,545	0,036	-0,044
-260,438	-119,489	-0,107	0,013
-259,424	247,350	-0,076	0,093
-258,409	-4,738	-0,079	-0,039
-257,395	800,000	-0,040	-0,082
-256,380	-43,582	0,169	0,061
-255,365	20,220	0,102	0,059
-254,351	87,902	0,061	-0,049
-253,336	-200,000	0,003	0,059
-252,322	10,236	0,122	0,067
-251,307	-200,000	-0,009	0,106
-250,292	262,868	0,087	-0,110
-249,278	132,127	-0,084	0,078
-248,263	7,409	-0,083	0,045
-247,249	-41,115	0,038	-0,014
-246,234	-200,000	-0,009	0,066
-245,219	-200,000	-0,004	-0,235
-244,205	16,174	-0,158	-0,090
-243,190	-52,245	0,020	-0,007
-242,176	-157,852	-0,074	0,003
-241,161	297,553	0,055	0,074
-240,146	295,382	0,018	-0,024
-239,132	-68,870	0,107	-0,030
-238,117	119,757	-0,080	-0,071
-237,103	218,421	-0,099	0,115
-236,088	147,097	0,128	0,124
-235,073	61,479	0,040	0,029
-234,059	141,420	0,146	0,140
-233,044	-140,394	-0,146	0,011
-232,030	222,020	0,041	-0,048
-231,015	642,224	0,046	-0,085
-230,000	-200,000	0,018	-0,083
-228,986	-200,000	0,028	0,140
-227,971	800,000	-0,033	0,086
-226,957	-3,559	-0,029	0,014
-225,942	800,000	-0,049	0,128
-224,927	462,886	0,022	0,036
-223,913	-139,836	0,047	0,004
-222,898	-200,000	-0,008	0,044
-221,884	-53,854	0,129	0,042
-220,869	800,000	0,025	0,067
-219,855	-200,000	-0,005	-0,136
-218,840	-200,000	0,046	0,176
-217,825	800,000	-0,070	0,171
-216,811	191,173	-0,129	-0,141
-215,796	-82,346	0,063	-0,015
-214,782	-57,367	-0,020	0,006
-213,767	62,681	0,068	0,049
-212,752	-200,000	-0,005	-0,054
-211,738	-200,000	-0,016	0,106
-210,723	164,265	0,085	-0,087
-209,709	-65,536	0,103	0,030
-208,694	-29,125	0,069	-0,028
-207,679	312,551	0,046	0,063
-206,665	292,833	0,012	0,016
-205,650	202,107	0,064	0,071
-204,636	228,560	0,044	0,052
-203,621	-39,504	-0,077	-0,029
-202,606	313,419	-0,055	0,075
-201,592	157,532	-0,082	-0,082
-200,577	41,307	-0,131	-0,085
-199,563	-33,633	0,124	0,049
-198,548	233,969	0,088	0,105
-197,533	-200,000	0,027	0,095
-196,519	-125,313	-0,068	0,007
-195,504	-37,969	0,137	0,052
-194,490	-104,972	-0,157	0,026
-193,475	41,379	0,084	-0,055
-192,460	260,027	0,028	-0,036
-191,446	-149,583	0,143	-0,008
-190,431	16,628	-0,113	0,064
-189,417	23,189	-0,058	0,034
-188,402	40,342	-0,112	-0,073
-187,387	47,231	-0,100	-0,067
-186,373	149,526	-0,083	-0,081
-185,358	-200,000	-0,015	0,126
-184,344	30,277	0,127	0,078
-183,329	203,887	-0,026	-0,029
-182,315	-200,000	-0,017	-0,057
-181,300	382,429	0,085	0,127
-180,285	-200,000	-0,021	-0,081
-179,271	-29,559	0,050	0,020
-178,256	800,000	-0,054	-0,122
-177,242	500,906	0,134	0,224
-176,227	525,062	-0,054	0,092
-175,212	800,000	-0,026	-0,073
-174,198	-200,000	-0,005	-0,035
-173,183	191,656	-0,064	0,070
-172,169	111,376	-0,041	-0,036
-171,154	-200,000	-0,020	-0,161
-170,139	119,687	0,127	0,114
-169,125	-5,373	0,107	0,053
-168,110	-200,000	0,011	0,133
-167,096	-200,000	0,015	-0,095
-166,081	-6,344	-0,090	-0,044
-165,066	407,661	-0,061	-0,093
-164,052	-200,000	0,020	0,127
-163,037	-104,872	-0,250	0,041
-162,023	703,672	0,035	-0,066
-161,008	800,000	0,038	0,113
-159,993	-200,000	0,004	-0,076
-158,979	-87,613	-0,059	0,013
-157,964	558,288	-0,018	0,031
-156,950	-200,000	-0,022	-0,087
-155,935	-200,000	0,007	-0,061
-154,920	35,612	-0,092	0,058
-153,906	336,384	0,022	0,031
-152,891	264,778	-0,108	-0,136
-151,877	-19,565	0,034	0,015
-150,862	198,662	-0,076	0,083
-149,847	166,398	0,072	0,073
-148,833	-96,153	-0,173	0,033
-147,818	800,000	0,006	-0,016
-146,804	200,099	0,056	0,062
-145,789	555,708	0,008	0,013
-144,775	-200,000	0,014	-0,120
-143,760	11,449	-0,145	-0,080
-142,745	-30,051	0,121	-0,049
-141,731	-12,854	0,091	0,042
-140,716	-200,000	0,030	0,121
-139,702	627,933	-0,016	-0,030
-138,687	-131,876	-0,162	0,015
-137,672	800,000	0,020	-0,043
-136,658	-75,001	-0,105	-0,027
-135,643	339,668	0,029	0,041
-134,629	568,385	-0,089	0,156
-133,614	70,034	-0,104	-0,077
-132,599	304,410	0,103	-0,139
-131,585	407,189	0,068	0,104
-130,570	-200,000	-0,008	-0,043
-129,556	-69,512	-0,083	0,023
-128,541	-200,000	0,008	-0,159
-127,526	21,341	0,076	-0,044
-126,512	261,401	0,062	0,078
-125,497	-200,000	-0,034	0,110
-124,483	-61,309	-0,064	0,019
-123,468	-97,433	-0,115	0,021
-122,453	69,674	0,111	-0,083
-121,439	154,315	-0,018	0,018
-120,424	800,000	0,066	-0,176
-119,410	-200,000	0,022	0,075
-118,395	-200,000	0,025	0,090
-117,380	-77,329	-0,141	0,035
-116,366	204,379	0,127	-0,142
-115,351	800,000	-0,047	-0,101
-114,337	-59,341	-0,135	0,041
-113,322	-200,000	-0,005	-0,130
-112,307	-16,204	-0,066	-0,030
-111,293	-76,742	0,227	-0,057
-110,278	-25,919	0,036	0,015
-109,264	360,893	0,062	-0,089
-108,249	71,640	-0,162	-0,121
-107,234	800,000	0,009	0,024
-106,220	-54,198	-0,066	-0,022
-105,205	-151,240	0,048	0,003
-104,191	576,142	-0,092	0,162
-103,176	800,000	-0,031	0,095
-102,162	315,654	0,033	-0,045
-101,147	-48,780	-0,132	-0,045
-100,132	-200,000	-0,011	-0,114
-99,118	17,831	-0,096	0,055
-98,103	273,812	-0,102	0,130
-97,089	-200,000	-0,017	0,093
-96,074	427,940	-0,062	0,097
-95,059	81,461	-0,095	-0,074
-94,045	800,000	-0,002	-0,007
-93,030	800,000	-0,088	-0,185
-92,016	24,761	-0,024	0,014
-91,001	56,391	-0,035	-0,024
-89,986	800,000	0,019	0,038
-88,972	30,411	0,047	-0,029
-87,957	-101,444	0,065	0,011
-86,943	8,113	-0,132	-0,071
-85,928	-23,382	-0,043	-0,018
-84,913	327,864	-0,056	-0,077
-83,899	534,800	0,032	0,054
-82,884	-48,793	-0,052	0,018
-81,870	-1,674	-0,165	0,083
-80,855	-34,643	0,118	0,046
-79,840	-117,177	0,060	0,008
-78,826	344,901	-0,101	0,143
-77,811	235,251	-0,024	0,028
-76,797	-200,000	0,012	0,094
-75,782	-118,765	0,034	-0,004
-74,767	-63,081	-0,074	-0,022
-73,753	194,896	-0,088	0,096
-72,738	800,000	-0,017	-0,040
-71,724	-140,209	0,084	0,006
-70,709	115,699	-0,081	0,071
-69,694	-91,291	0,085	-0,017
-68,680	800,000	-0,028	-0,075
-67,665	-33,375	0,019	0,008
-66,651	-200,000	-0,007	0,099
-65,636	-200,000	0,002	0,068
-64,622	-143,285	-0,071	0,005
-63,607	-145,833	-0,022	0,001
-62,592	-129,555	-0,081	-0,008
-61,578	168,801	0,090	-0,092
-60,563	21,765	0,036	-0,021
-59,549	-122,731	-0,097	0,011
-58,534	11,767	-1,895	-1,042
-57,519	-200,000	-0,276	-1,032
-56,505	-200,000	-1,151	-4,858
-55,490	-59,666	0,748	0,229
-54,476	800,000	5,478	12,222
-53,461	-200,000	17,282	284,007
-52,446	800,000	723,003	2229,167
-51,432	544,416	1638,850	2821,132
-50,417	112,215	1631,513	1415,978
-49,403	76,519	1286,885	978,493
-48,388	33,013	1029,212	638,856
-47,373	20,314	991,087	573,261
-46,359	18,809	979,132	561,377
-45,344	16,288	975,150	550,807
-44,330	16,500	973,599	550,604
-43,315	16,034	972,063	548,190
-42,300	15,949	971,009	547,296
-41,286	15,990	969,860	546,762
-40,271	15,961	968,823	546,059
-39,257	16,013	968,067	545,780
-38,242	16,064	967,063	545,360
-37,227	15,970	966,366	544,640
-36,213	16,017	965,254	544,143
-35,198	16,040	964,441	543,737
-34,184	16,003	963,788	543,230
-33,169	15,941	962,887	542,498
-32,154	16,116	961,715	542,383
-31,140	16,033	960,990	541,684
-30,125	16,024	960,253	541,219
-29,111	15,996	959,468	540,665
-28,096	15,968	958,906	540,234
-27,082	16,004	958,247	539,958
-26,067	15,981	957,460	539,418
-25,052	15,990	956,588	538,935
-24,038	15,992	955,951	538,563
-23,023	15,981	955,203	538,083
-22,009	16,027	954,547	537,842
-20,994	15,998	954,035	537,439
-19,979	15,985	953,393	537,014
-18,965	16,040	952,758	536,810
-17,950	15,962	952,353	536,309
-16,936	15,939	951,638	535,812
-15,921	15,940	950,956	535,411
-14,906	15,940	949,962	534,830
-13,892	15,863	949,496	534,301
-12,877	15,936	948,825	534,136
-11,863	15,860	948,304	533,580
-10,848	15,853	947,901	533,308
-9,833	15,964	947,219	533,257
-8,819	15,955	946,576	532,843
-7,804	15,878	945,917	532,209
-6,790	15,896	945,303	531,897
-5,775	15,921	944,759	531,651
-4,760	15,908	944,169	531,257
-3,746	15,883	943,487	530,772
-2,731	15,727	943,015	529,991
-1,717	15,759	942,107	529,562
-0,702	15,760	941,617	529,267
0,313	15,503	941,041	528,930
1,327	18,568	938,702	537,241
2,342	27,163	796,154	478,487
3,356	23,784	460,113	271,321
4,371	-2,907	314,536	157,086
5,386	-6,911	296,362	143,942
6,400	-8,803	290,261	139,087
7,415	-9,319	287,843	137,408
8,429	-9,595	286,413	136,442
9,444	-9,454	285,495	136,131
10,459	-9,421	284,877	135,856
11,473	-9,633	284,310	135,368
12,488	-9,439	283,796	135,299
13,502	-9,667	283,280	134,820
14,517	-9,387	282,801	134,851
15,531	-9,457	282,340	134,552
16,546	-9,290	281,905	134,493
17,561	-9,491	281,628	134,155
18,575	-9,389	281,286	134,079
19,590	-9,611	281,025	133,728
20,604	-9,423	280,634	133,712
21,619	-9,575	280,310	133,400
22,634	-9,370	280,020	133,446
23,648	-9,468	279,667	133,172
24,663	-9,435	279,327	133,029
25,677	-9,402	279,125	132,953
26,692	-9,441	278,952	132,822
27,707	-9,367	278,599	132,713
28,721	-9,302	278,297	132,618
29,736	-9,472	278,195	132,396
30,750	-9,472	277,817	132,204
31,765	-9,512	277,442	131,976
32,780	-9,425	277,248	131,955
33,794	-9,467	277,162	131,863
34,809	-9,491	276,860	131,684
35,823	-9,568	276,512	131,434
36,838	-9,389	276,190	131,438
37,853	-9,502	275,952	131,207
38,867	-9,636	275,939	131,062
39,882	-9,525	275,560	130,975
40,896	-9,601	275,345	130,790
41,911	-9,405	275,116	130,854
42,926	-9,501	274,797	130,600
43,940	-9,547	274,510	130,409
44,955	-9,664	274,260	130,170
45,969	-9,686	274,164	130,092
46,984	-9,643	273,893	129,991
47,999	-9,997	273,614	129,517
49,013	-10,042	273,375	129,350
50,028	-9,992	273,055	129,234
51,042	-10,164	272,848	128,965
52,057	-10,269	272,617	128,746
53,071	-10,333	272,489	128,614
54,086	-10,107	272,259	128,704
55,101	-9,751	272,052	128,926
56,115	-9,658	271,949	128,952
57,130	-9,670	271,905	128,908
58,144	-9,308	271,545	129,061
59,159	-9,501	271,378	128,791
60,174	-9,327	271,020	128,771
61,188	-9,407	270,837	128,598
62,203	-9,437	270,629	128,461
63,217	-9,364	270,394	128,404
64,232	-9,260	270,205	128,399
65,247	-9,455	270,031	128,126
66,261	-9,414	269,716	128,002
67,276	-9,604	269,379	127,658
68,290	-9,802	269,241	127,399
69,305	-9,903	268,955	127,159
70,320	-9,482	268,719	127,421
71,334	-9,524	268,743	127,384
72,349	-9,352	268,317	127,327
73,363	-9,598	268,258	127,064
74,378	-9,313	267,957	127,169
75,393	-9,427	267,854	127,005
76,407	-9,366	267,605	126,931
77,422	-9,488	267,431	126,726
78,436	-9,355	267,118	126,688
79,451	-9,396	266,975	126,571
80,466	-9,535	266,644	126,277
81,480	-9,583	266,579	126,191
82,495	-9,527	266,196	126,050
83,509	-9,404	266,104	126,106
84,524	-9,514	265,803	125,853
85,539	-9,579	265,500	125,639
86,553	-9,634	265,278	125,473
87,568	-9,481	265,237	125,581
88,582	-9,652	265,080	125,341
89,597	-9,710	264,769	125,131
90,611	-9,547	264,693	125,231
91,626	-9,442	264,348	125,150
92,641	-9,329	264,372	125,252
93,655	-9,420	263,943	124,956
94,670	-9,364	263,646	124,854
95,684	-9,399	263,451	124,720
96,699	-9,469	263,457	124,649
97,714	-9,701	263,254	124,334
98,728	-9,705	263,004	124,202
99,743	-9,740	262,746	124,037
100,757	-9,858	262,439	123,776
101,772	-9,622	262,415	123,964
102,787	-9,489	262,077	123,911
103,801	-9,527	262,016	123,838
104,816	-9,327	261,769	123,888
105,830	-9,404	261,727	123,788
106,845	-9,303	261,631	123,822
107,860	-9,519	261,383	123,502
108,874	-9,436	261,049	123,406
109,889	-9,590	260,835	123,158
110,903	-9,600	260,553	123,005
111,918	-9,420	260,339	123,052
112,933	-9,452	260,262	122,976
113,947	-9,333	260,017	122,954
114,962	-9,445	259,999	122,836
115,976	-9,408	259,640	122,688
116,991	-9,583	259,461	122,439
118,006	-9,413	259,335	122,518
119,020	-9,486	259,193	122,376
120,035	-9,509	259,177	122,338
121,049	-9,464	258,793	122,184
122,064	-9,590	258,642	121,992
123,079	-9,469	258,487	122,014
124,093	-9,338	258,143	121,955
125,108	-9,590	258,006	121,660
126,122	-9,728	257,771	121,417
127,137	-10,008	257,571	121,068
128,151	-9,663	257,310	121,235
129,166	-9,620	257,123	121,173
130,181	-9,654	256,940	121,047
131,195	-9,603	256,777	121,004
132,210	-9,496	256,689	121,045
133,224	-9,455	256,461	120,961
134,239	-9,598	256,352	120,775
135,254	-9,334	256,145	120,896
136,268	-9,813	255,965	120,385
137,283	-9,775	255,633	120,251
138,297	-9,837	255,442	120,097
139,312	-9,991	255,198	119,839
140,327	-9,559	255,097	120,153
141,341	-9,391	254,944	120,216
142,356	-9,423	254,912	120,162
143,370	-9,323	254,726	120,149
144,385	-9,053	254,377	120,207
145,400	-9,177	254,335	120,069
146,414	-9,209	254,233	119,983
147,429	-9,396	253,897	119,653
148,443	-9,339	253,771	119,632
149,458	-9,257	253,625	119,623
150,473	-9,499	253,410	119,304
151,487	-9,399	253,191	119,275
152,502	-9,175	252,812	119,278
153,516	-9,324	252,866	119,165
154,531	-9,110	252,539	119,183
155,546	-9,271	252,549	119,040
156,560	-9,331	252,114	118,773
157,575	-9,481	252,052	118,606
158,589	-9,297	251,800	118,633
159,604	-9,350	251,744	118,551
160,619	-9,124	251,576	118,653
161,633	-9,188	251,284	118,450
162,648	-9,535	251,278	118,143
163,662	-9,241	250,946	118,225
164,677	-9,115	250,838	118,271
165,692	-9,251	250,736	118,097
166,706	-9,268	250,477	117,950
167,721	-9,247	250,442	117,941
168,735	-9,238	250,233	117,840
169,750	-9,029	249,890	117,843
170,764	-9,313	250,072	117,679
171,779	-9,290	249,889	117,602
172,794	-9,054	249,526	117,620
173,808	-9,066	249,269	117,478
174,823	-9,585	249,109	116,956
175,837	-9,794	248,883	116,663
176,852	-9,398	248,826	116,959
177,867	-9,402	248,800	116,933
178,881	-9,042	248,448	117,059
179,896	-9,089	248,325	116,951
180,910	-9,271	248,195	116,727
181,925	-9,381	248,101	116,580
182,940	-9,208	247,773	116,560
183,954	-9,362	247,706	116,390
184,969	-9,194	247,611	116,475
185,983	-9,265	247,418	116,315
186,998	-9,217	247,117	116,203
188,013	-9,176	247,081	116,209
189,027	-9,150	246,936	116,152
190,042	-9,081	246,603	116,043
191,056	-9,262	246,493	115,831
192,071	-9,327	246,384	115,715
193,086	-9,244	246,182	115,678
194,100	-9,507	246,025	115,376
195,115	-9,240	245,884	115,521
196,129	-9,395	245,699	115,296
197,144	-9,257	245,447	115,281
198,159	-9,163	245,263	115,262
199,173	-9,293	245,035	115,038
200,188	-9,393	244,913	114,887
201,202	-9,444	244,493	114,638
202,217	-9,783	244,432	114,320
203,232	-9,765	244,141	114,189
204,246	-9,349	244,106	114,504
205,261	-9,091	243,950	114,633
206,275	-10,183	243,650	113,586
207,290	-6,666	244,842	117,027
208,304	-0,444	247,021	123,213
209,319	2,636	247,566	126,024
210,334	3,070	247,610	126,395
211,348	3,130	247,629	126,442
212,363	3,546	247,618	126,769
213,377	3,588	247,373	126,668
214,392	3,514	247,187	126,500
215,407	3,422	246,905	126,269
216,421	3,404	246,840	126,209
217,436	3,772	246,692	126,425
218,450	3,692	246,553	126,277
219,465	3,269	246,312	125,795
220,480	3,125	246,200	125,608
221,494	3,253	246,020	125,610
222,509	3,591	245,794	125,760
223,523	3,355	245,636	125,475
224,538	2,910	245,431	124,995
225,553	2,880	245,373	124,930
226,567	2,990	245,142	124,891
227,582	3,291	244,964	125,035
228,596	3,355	244,821	125,003
229,611	3,125	244,548	124,665
230,626	2,847	244,357	124,330
231,640	2,967	244,367	124,422
232,655	3,345	243,950	124,506
233,669	3,165	243,819	124,281
234,684	2,926	243,720	124,025
235,699	3,239	243,839	124,329
236,713	3,488	243,527	124,361
237,728	2,970	243,384	123,857
238,742	2,875	243,177	123,664
239,757	2,982	242,774	123,535
240,772	2,895	242,825	123,479
241,786	3,067	242,854	123,622
242,801	2,827	242,619	123,298
243,815	2,940	242,323	123,228
244,830	3,140	242,264	123,347
245,844	3,167	242,058	123,253
246,859	3,044	241,920	123,073
247,874	2,969	241,800	122,941
248,888	2,877	241,708	122,809
249,903	3,028	241,482	122,804
250,917	3,095	241,351	122,781
251,932	3,322	241,262	122,907
252,947	3,310	241,020	122,763
253,961	2,972	240,853	122,396
254,976	3,117	240,702	122,424
255,990	3,209	240,636	122,453
257,005	3,139	240,426	122,280
258,020	2,842	240,202	121,918
259,034	2,980	239,993	121,911
260,049	3,149	239,934	122,005
261,063	3,146	239,511	121,776
262,078	3,009	239,585	121,695
263,093	3,376	239,472	121,918
264,107	3,242	239,377	121,753
265,122	2,963	239,158	121,408
266,136	3,121	239,008	121,447
267,151	3,397	239,068	121,686
268,166	2,930	238,691	121,113
269,180	2,922	238,504	121,000
270,195	3,591	238,481	121,508
271,209	3,651	238,501	121,555
272,224	2,891	238,100	120,739
273,239	2,932	237,883	120,650
274,253	2,916	237,769	120,569
275,268	3,317	237,583	120,780
276,282	3,293	237,420	120,668
277,297	2,844	237,218	120,200
278,312	2,926	237,184	120,238
279,326	3,120	237,183	120,379
280,341	3,197	236,898	120,284
281,355	3,311	236,755	120,291
282,370	3,272	236,650	120,195
283,384	2,995	236,456	119,870
284,399	2,937	236,358	119,763
285,414	2,856	236,017	119,516
286,428	3,077	235,880	119,610
287,443	3,033	235,742	119,495
288,457	3,152	235,573	119,491
289,472	3,213	235,608	119,545
290,487	3,326	235,278	119,456
291,501	3,173	235,156	119,264
292,516	2,592	234,998	118,720
293,530	2,549	234,794	118,573
294,545	3,088	234,807	118,988
295,560	3,140	234,634	118,931
296,574	2,695	234,366	118,439
297,589	3,039	234,378	118,701
298,603	3,400	234,184	118,873
299,618	3,253	234,100	118,706
300,633	3,121	234,021	118,552
301,647	3,254	233,870	118,569
302,662	3,673	233,658	118,774
303,676	3,353	233,700	118,538
304,691	3,322	233,359	118,330
305,706	3,564	233,329	118,492
306,720	3,533	233,011	118,295
307,735	3,299	232,901	118,049
308,749	3,298	232,676	117,923
309,764	3,017	232,483	117,599
310,779	2,835	232,282	117,347
311,793	2,873	231,950	117,198
312,808	2,883	231,911	117,175
313,822	2,830	231,872	117,104
314,837	2,813	231,679	116,983
315,852	2,775	231,552	116,880
316,866	3,226	231,430	117,153
317,881	3,160	231,487	117,121
318,895	3,352	231,252	117,139
319,910	3,471	231,087	117,135
320,925	3,285	230,868	116,872
321,939	3,024	230,624	116,539
322,954	3,152	230,658	116,643
323,968	3,199	230,506	116,592
324,983	2,923	230,176	116,205
325,997	3,029	230,106	116,239
327,012	2,847	230,166	116,121
328,027	3,281	229,815	116,263
329,041	3,703	229,912	116,622
330,056	3,946	229,839	116,760
331,070	3,663	229,655	116,441
332,085	3,381	229,239	116,006
333,100	3,343	229,134	115,914
334,114	3,470	229,109	115,987
335,129	3,580	228,894	115,951
336,143	3,357	228,765	115,707
337,158	3,406	228,672	115,686
338,173	3,593	228,537	115,749
339,187	3,338	228,341	115,447
340,202	3,538	228,242	115,537
341,216	3,449	228,101	115,389
342,231	3,284	227,800	115,102
343,246	3,227	227,744	115,021
344,260	3,349	227,733	115,096
345,275	3,368	227,562	115,014
346,289	3,556	227,489	115,108
347,304	3,469	227,405	114,990
348,319	3,544	227,141	114,902
349,333	3,340	226,889	114,612
350,348	3,435	226,758	114,607
351,362	3,429	226,643	114,534
352,377	3,320	226,435	114,338
353,392	3,398	226,234	114,283
354,406	3,138	226,097	114,010
355,421	195,438	1322,460	1399,618
356,435	156,653	1456,042	1399,629
