DTS Sentinel unit serial number:	SN410029Multiplexer serial number:	ORYXHardware model number:	OX2-SRSoftware version number:	ORYX F/W v4,00 Oryx Data Collector v3.7.2.0data status	okinstallation	B5 Nyhavnadifferential loss correction	single-endedforward channel	channel 2reverse channel	N/Adate	2023/12/12time	13:07:13forward acquisition time	300,00reverse acquisition time	0,00gamma	499,1914k internal	0,3158k external	0,3158temperature offset calibration	1,0000default loss term (dB/km)	0,3820temperature slope calibration	1,0000multiplexer offset coefficient	1,0000multiplexer slope coefficient	1,0000fibre end	0,00T internal ref (°C)	15,51T ext. ref 1 (°C)	-0,39T ext. ref 2 (°C)	-0,66length (m)	temperature (°C)	Stokes	anti-Stokes-744,400	-103,786	0,126	0,021
-743,385	-119,523	-0,256	-0,032
-742,371	103,215	0,118	-0,102
-741,356	-30,887	-0,259	0,107
-740,342	14,355	0,096	0,055
-739,327	-96,110	-0,386	-0,075
-738,312	-200,000	-0,034	-0,140
-737,298	-18,478	-0,216	-0,099
-736,283	-147,540	0,205	0,013
-735,269	-66,604	-0,220	0,064
-734,254	-145,943	0,140	-0,009
-733,239	-64,706	-0,381	-0,113
-732,225	-200,000	0,015	0,053
-731,210	305,807	0,017	0,023
-730,196	399,118	0,056	0,087
-729,181	800,000	-0,035	0,093
-728,167	586,521	0,052	0,095
-727,152	-131,022	-0,038	0,004
-726,137	97,418	-0,070	-0,060
-725,123	-109,532	-0,138	0,021
-724,108	215,407	-0,075	0,087
-723,094	-200,000	-0,006	-0,143
-722,079	-6,556	0,125	-0,062
-721,064	800,000	-0,028	0,058
-720,050	-121,558	-0,092	-0,011
-719,035	381,127	0,052	0,078
-718,021	800,000	-0,075	0,167
-717,006	-166,425	-0,303	-0,009
-715,991	295,655	-0,077	-0,105
-714,977	-200,000	-0,014	-0,110
-713,962	-110,440	-0,021	0,003
-712,948	-200,000	0,002	-0,125
-711,933	-117,302	-0,069	-0,009
-710,918	800,000	-0,011	-0,037
-709,904	-140,668	-0,150	-0,011
-708,889	15,962	-0,069	-0,040
-707,875	-99,423	-0,099	-0,018
-706,860	-200,000	-0,007	0,126
-705,845	-136,355	0,075	0,006
-704,831	-200,000	0,009	-0,048
-703,816	-11,520	0,076	-0,037
-702,802	-98,106	0,042	0,008
-701,787	-200,000	0,017	-0,116
-700,772	-82,435	-0,063	-0,015
-699,758	143,982	0,092	0,090
-698,743	-200,000	0,016	0,070
-697,729	-105,938	-0,120	0,020
-696,714	-200,000	-0,014	0,065
-695,699	-125,612	-0,187	-0,021
-694,685	-200,000	0,002	0,019
-693,670	-200,000	-0,029	-0,098
-692,656	11,178	0,137	0,077
-691,641	241,912	-0,038	0,047
-690,627	-67,003	-0,040	0,011
-689,612	334,486	-0,052	0,074
-688,597	535,996	-0,046	-0,080
-687,583	0,930	0,047	-0,025
-686,568	124,060	-0,047	0,043
-685,554	-47,034	-0,061	-0,022
-684,539	-200,000	-0,010	-0,081
-683,524	-200,000	0,049	-0,172
-682,510	-200,000	0,003	0,041
-681,495	176,840	-0,020	0,021
-680,481	-200,000	0,014	-0,094
-679,466	-200,000	0,015	-0,052
-678,451	-57,041	-0,058	-0,019
-677,437	-41,871	-0,205	-0,077
-676,422	-200,000	-0,010	0,112
-675,408	-200,000	0,002	0,016
-674,393	26,821	-0,008	0,005
-673,378	422,210	-0,055	-0,087
-672,364	800,000	-0,062	-0,150
-671,349	-200,000	0,015	-0,060
-670,335	18,501	-0,081	-0,048
-669,320	-200,000	0,021	0,100
-668,305	176,589	-0,026	-0,028
-667,291	-67,703	-0,064	-0,018
-666,276	191,277	0,045	0,050
-665,262	-157,770	-0,110	0,005
-664,247	53,660	-0,060	0,042
-663,232	800,000	0,017	0,035
-662,218	-200,000	0,001	0,071
-661,203	-89,708	-0,052	0,011
-660,189	-200,000	-0,006	-0,053
-659,174	694,053	-0,037	0,072
-658,159	-47,268	-0,045	0,016
-657,145	-95,385	-0,081	-0,016
-656,130	124,521	0,070	0,064
-655,116	800,000	0,048	-0,103
-654,101	-171,752	-0,027	-0,001
-653,086	-200,000	-0,004	-0,041
-652,072	308,950	-0,023	-0,032
-651,057	-59,301	-0,102	-0,032
-650,043	292,610	-0,013	0,017
-649,028	-110,036	0,037	0,006
-648,014	568,875	0,068	0,122
-646,999	-107,730	-0,087	-0,014
-645,984	-200,000	-0,031	0,110
-644,970	-38,214	-0,084	-0,032
-643,955	55,279	0,094	-0,066
-642,941	-100,757	-0,105	-0,019
-641,926	-200,000	0,012	-0,093
-640,911	800,000	0,033	-0,081
-639,897	-57,555	-0,059	-0,019
-638,882	136,273	0,047	0,045
-637,868	-23,342	-0,101	-0,044
-636,853	-95,301	-0,124	-0,024
-635,838	800,000	0,046	-0,108
-634,824	-78,074	-0,056	-0,014
-633,809	-200,000	-0,022	0,079
-632,795	800,000	-0,031	0,080
-631,780	-82,333	0,161	0,038
-630,765	-200,000	0,005	-0,077
-629,751	-48,817	-0,151	-0,053
-628,736	800,000	0,020	-0,049
-627,722	-20,599	-0,078	-0,035
-626,707	-200,000	0,005	0,019
-625,692	-49,862	-0,078	-0,027
-624,678	56,350	-0,061	-0,043
-623,663	79,226	-0,060	-0,047
-622,649	800,000	-0,024	-0,056
-621,634	-84,127	-0,098	-0,023
-620,619	545,086	-0,045	-0,079
-619,605	52,632	0,047	0,033
-618,590	-45,333	-0,082	0,030
-617,576	400,462	-0,090	0,139
-616,561	4,832	0,112	-0,060
-615,546	418,403	0,062	-0,097
-614,532	504,896	-0,013	-0,023
-613,517	-28,278	-0,012	0,005
-612,503	-178,199	-0,070	0,001
-611,488	800,000	-0,031	-0,075
-610,474	286,630	-0,017	0,022
-609,459	189,600	0,015	-0,016
-608,444	277,781	0,040	-0,052
-607,430	459,691	-0,151	-0,247
-606,415	-58,721	0,028	0,009
-605,401	800,000	0,029	0,069
-604,386	800,000	-0,043	-0,115
-603,371	340,888	0,021	0,031
-602,357	-82,942	0,049	0,011
-601,342	-45,446	-0,064	-0,023
-600,328	189,440	-0,066	0,072
-599,313	-200,000	0,004	-0,137
-598,298	102,770	-0,024	0,020
-597,284	-163,298	0,034	-0,001
-596,269	800,000	-0,035	-0,094
-595,255	159,502	0,046	-0,047
-594,240	120,114	-0,063	0,057
-593,225	616,185	-0,037	0,067
-592,211	112,146	-0,079	-0,070
-591,196	180,526	-0,092	-0,100
-590,182	-64,581	-0,012	0,003
-589,167	16,528	-0,027	0,016
-588,152	-51,404	-0,063	0,021
-587,138	64,198	-0,087	-0,064
-586,123	-95,792	-0,101	0,020
-585,109	-200,000	0,031	-0,104
-584,094	-81,251	0,053	-0,013
-583,079	-200,000	0,010	0,120
-582,065	102,416	-0,016	0,013
-581,050	123,998	0,089	0,082
-580,036	287,111	-0,028	-0,037
-579,021	262,702	-0,067	0,086
-578,006	652,959	0,042	0,080
-576,992	74,583	0,056	-0,043
-575,977	-200,000	-0,004	-0,057
-574,963	612,743	-0,014	0,026
-573,948	-200,000	-0,017	0,166
-572,934	-113,509	-0,086	0,012
-571,919	-10,201	-0,123	-0,060
-570,904	58,102	-0,132	-0,094
-569,890	-115,329	0,107	-0,015
-568,875	-131,049	0,039	0,004
-567,861	-58,752	0,067	-0,021
-566,846	-131,395	-0,122	0,012
-565,831	-2,524	0,052	0,026
-564,817	146,814	-0,150	-0,148
-563,802	-3,312	-0,042	-0,021
-562,788	-52,141	-0,085	0,029
-561,773	-98,636	0,050	-0,009
-560,758	-51,260	0,013	-0,004
-559,744	-64,947	0,062	0,018
-558,729	-200,000	-0,025	0,100
-557,715	-66,278	0,070	-0,020
-556,700	332,008	-0,095	-0,134
-555,685	-200,000	-0,014	-0,104
-554,671	13,394	0,092	-0,052
-553,656	-200,000	-0,010	-0,065
-552,642	459,926	0,078	0,128
-551,627	308,824	-0,031	-0,043
-550,612	289,485	0,013	-0,018
-549,598	175,873	-0,014	0,015
-548,583	-200,000	0,021	0,130
-547,569	800,000	0,026	0,080
-546,554	-200,000	-0,008	0,097
-545,539	-30,664	-0,034	-0,014
-544,525	319,171	0,074	0,103
-543,510	-200,000	-0,037	-0,162
-542,496	56,137	-0,062	0,044
-541,481	-71,161	-0,148	-0,040
-540,466	-14,518	0,065	0,030
-539,452	390,904	0,017	0,026
-538,437	296,695	-0,054	-0,072
-537,423	169,366	0,057	0,059
-536,408	572,763	0,008	-0,015
-535,393	258,371	0,052	0,065
-534,379	-200,000	0,009	0,092
-533,364	-146,602	-0,079	0,005
-532,350	-134,834	0,113	0,010
-531,335	-200,000	0,015	0,130
-530,321	9,795	-0,062	-0,034
-529,306	202,019	-0,103	0,116
-528,291	800,000	0,028	0,074
-527,277	-74,719	-0,019	0,005
-526,262	-200,000	0,011	-0,055
-525,248	-200,000	0,001	-0,005
-524,233	-200,000	0,006	-0,075
-523,218	-200,000	-0,014	0,066
-522,204	307,574	0,040	0,055
-521,189	370,692	-0,067	-0,100
-520,175	-200,000	-0,014	0,054
-519,160	-147,578	-0,114	-0,007
-518,145	-126,143	0,119	0,013
-517,131	128,205	0,180	0,167
-516,116	-200,000	0,018	-0,144
-515,102	-200,000	-0,033	-0,154
-514,087	-72,271	-0,172	0,046
-513,072	178,700	-0,027	0,029
-512,058	-52,891	-0,044	0,015
-511,043	-105,883	0,066	0,011
-510,029	-24,368	0,013	0,006
-509,014	68,117	0,100	0,075
-507,999	-133,630	0,081	-0,007
-506,985	-57,438	-0,095	-0,030
-505,970	800,000	0,038	-0,117
-504,956	-200,000	0,026	0,117
-503,941	76,822	0,047	0,037
-502,926	-21,524	-0,066	-0,029
-501,912	-98,333	0,153	-0,028
-500,897	71,795	0,060	-0,046
-499,883	13,127	-0,136	0,077
-498,868	272,755	-0,071	-0,092
-497,853	217,384	-0,050	0,058
-496,839	-200,000	-0,019	0,093
-495,824	173,236	-0,073	0,076
-494,810	224,925	-0,065	0,077
-493,795	66,768	-0,100	0,074
-492,781	-98,479	-0,111	-0,021
-491,766	-200,000	-0,016	-0,078
-490,751	67,910	0,096	-0,072
-489,737	-200,000	0,035	0,184
-488,722	163,336	0,028	-0,029
-487,708	207,690	-0,015	0,018
-486,693	800,000	-0,045	0,137
-485,678	-26,370	-0,172	-0,073
-484,664	-20,201	-0,073	0,032
-483,649	-109,854	0,121	0,018
-482,635	58,228	0,033	0,023
-481,620	-200,000	-0,001	0,071
-480,605	-78,988	-0,068	-0,017
-479,591	450,914	0,074	0,119
-478,576	259,191	-0,039	0,049
-477,562	66,944	-0,056	-0,042
-476,547	53,562	0,049	0,034
-475,532	-80,369	0,014	0,003
-474,518	800,000	0,053	-0,130
-473,503	-12,946	0,102	-0,048
-472,489	-60,678	0,116	-0,036
-471,474	-94,959	0,052	-0,010
-470,459	234,957	0,096	-0,116
-469,445	-200,000	0,045	-0,183
-468,430	-200,000	-0,022	-0,088
-467,416	-200,000	-0,011	-0,079
-466,401	800,000	0,026	0,064
-465,386	293,273	0,063	0,084
-464,372	306,973	0,039	0,053
-463,357	-200,000	-0,000	-0,125
-462,343	800,000	0,046	-0,112
-461,328	86,739	-0,055	-0,044
-460,313	-200,000	0,011	-0,184
-459,299	-200,000	0,014	-0,080
-458,284	-83,200	-0,011	-0,003
-457,270	197,968	-0,075	0,083
-456,255	-47,270	0,097	0,034
-455,241	96,692	-0,062	-0,052
-454,226	-93,559	-0,101	-0,020
-453,211	-81,312	0,118	0,028
-452,197	-95,480	0,122	0,024
-451,182	-200,000	-0,001	0,076
-450,168	-200,000	-0,051	0,191
-449,153	-200,000	0,043	0,203
-448,138	-89,932	-0,191	0,040
-447,124	284,284	0,054	0,072
-446,109	-200,000	0,024	-0,114
-445,095	-200,000	-0,001	-0,009
-444,080	800,000	0,036	-0,113
-443,065	-200,000	0,013	0,074
-442,051	436,647	-0,025	-0,040
-441,036	-45,053	-0,040	0,014
-440,022	42,794	-0,055	-0,036
-439,007	-39,566	0,109	-0,042
-437,992	800,000	0,045	0,135
-436,978	-32,460	-0,013	0,005
-435,963	-200,000	0,017	0,089
-434,949	800,000	-0,014	0,029
-433,934	-60,205	-0,089	-0,027
-432,919	-200,000	-0,016	-0,114
-431,905	800,000	0,039	-0,079
-430,890	-117,232	0,071	-0,009
-429,876	117,448	-0,072	-0,065
-428,861	268,838	-0,038	-0,049
-427,846	-200,000	-0,024	-0,107
-426,832	-200,000	-0,029	-0,110
-425,817	-200,000	0,013	-0,149
-424,803	-118,358	0,064	0,008
-423,788	800,000	0,063	0,137
-422,773	-86,881	0,101	0,022
-421,759	205,159	0,038	-0,043
-420,744	224,614	-0,045	0,053
-419,730	-110,716	0,076	-0,011
-418,715	-61,849	0,016	0,005
-417,701	-128,654	0,099	-0,010
-416,686	-11,220	0,053	0,025
-415,671	-200,000	-0,005	0,136
-414,657	754,992	0,037	0,073
-413,642	800,000	0,022	-0,063
-412,628	-200,000	0,014	-0,048
-411,613	-45,374	0,176	0,063
-410,598	2,641	-0,078	0,041
-409,584	-200,000	-0,002	-0,015
-408,569	601,225	-0,030	-0,055
-407,555	800,000	0,015	0,036
-406,540	-117,052	-0,023	-0,003
-405,525	-144,676	-0,134	0,009
-404,511	-200,000	-0,003	-0,047
-403,496	-78,125	0,148	0,037
-402,482	-22,474	0,119	-0,052
-401,467	-123,625	0,050	-0,006
-400,452	-200,000	0,009	-0,035
-399,438	-200,000	0,021	0,150
-398,423	23,802	-0,046	0,028
-397,409	225,473	-0,125	-0,147
-396,394	254,370	-0,025	-0,031
-395,379	-200,000	-0,005	0,124
-394,365	-1,484	0,151	0,077
-393,350	30,593	-0,029	0,018
-392,336	77,868	-0,019	-0,015
-391,321	-93,364	-0,085	0,017
-390,306	538,276	-0,041	-0,072
-389,292	-200,000	-0,009	0,072
-388,277	-200,000	-0,007	0,057
-387,263	-61,481	0,084	0,026
-386,248	-200,000	-0,016	0,118
-385,233	141,251	0,153	0,147
-384,219	-200,000	-0,012	0,074
-383,204	-200,000	-0,005	0,017
-382,190	-31,659	0,088	0,036
-381,175	319,991	0,088	0,121
-380,160	228,903	-0,013	0,016
-379,146	-63,735	-0,079	-0,023
-378,131	-17,314	-0,043	0,019
-377,117	800,000	0,035	0,098
-376,102	-120,298	-0,034	-0,004
-375,088	-18,427	-0,106	0,048
-374,073	-27,345	-0,201	0,085
-373,058	800,000	-0,068	-0,151
-372,044	93,266	0,071	0,058
-371,029	-200,000	-0,009	0,090
-370,015	57,199	-0,059	0,042
-369,000	-126,132	0,025	0,003
-367,985	640,321	0,028	-0,052
-366,971	-200,000	0,008	0,076
-365,956	-125,934	0,200	-0,022
-364,942	800,000	0,024	0,055
-363,927	-131,668	0,025	-0,002
-362,912	800,000	0,053	0,153
-361,898	-200,000	-0,020	0,131
-360,883	-54,170	-0,147	0,048
-359,869	-200,000	-0,019	-0,064
-358,854	-200,000	0,016	-0,127
-357,839	-200,000	-0,026	0,152
-356,825	-141,265	0,166	-0,012
-355,810	792,438	0,083	0,167
-354,796	-18,724	0,108	0,049
-353,781	-13,741	0,062	0,029
-352,766	42,915	-0,086	-0,057
-351,752	482,471	0,086	0,143
-350,737	-200,000	0,023	0,087
-349,723	47,689	0,077	0,052
-348,708	-15,247	-0,021	-0,010
-347,693	800,000	0,030	0,071
-346,679	-200,000	0,004	-0,019
-345,664	-71,464	-0,017	-0,005
-344,650	-96,387	0,063	-0,012
-343,635	54,784	0,130	-0,091
-342,620	159,265	0,060	0,061
-341,606	800,000	0,014	-0,032
-340,591	-21,100	-0,080	-0,035
-339,577	68,909	-0,093	0,069
-338,562	253,912	-0,110	0,137
-337,548	-29,667	0,041	-0,017
-336,533	-200,000	0,006	0,086
-335,518	-199,536	-0,064	0,000
-334,504	-48,299	0,092	0,032
-333,489	107,816	-0,063	-0,054
-332,475	651,790	0,062	0,116
-331,460	-98,316	-0,078	-0,014
-330,445	800,000	-0,047	-0,141
-329,431	-200,000	0,015	-0,121
-328,416	-200,000	-0,024	0,096
-327,402	800,000	0,070	0,193
-326,387	-152,277	0,075	0,004
-325,372	332,806	0,025	-0,035
-324,358	437,514	-0,027	-0,042
-323,343	71,758	0,091	-0,069
-322,329	-200,000	0,007	0,066
-321,314	800,000	-0,060	0,145
-320,299	-200,000	0,014	0,056
-319,285	-200,000	0,013	-0,100
-318,270	363,215	-0,107	-0,156
-317,256	800,000	-0,054	-0,132
-316,241	800,000	0,013	-0,027
-315,226	-43,690	0,163	-0,059
-314,212	-200,000	-0,004	0,088
-313,197	194,327	-0,057	0,063
-312,183	336,253	-0,039	0,055
-311,168	742,626	-0,022	-0,042
-310,153	-13,921	0,072	-0,034
-309,139	464,212	0,066	-0,107
-308,124	87,597	-0,021	0,017
-307,110	-89,698	0,069	0,015
-306,095	409,267	0,087	0,134
-305,080	-200,000	-0,027	0,000
-304,066	800,000	0,025	0,077
-303,051	-30,189	-0,153	-0,063
-302,037	-200,000	-0,004	-0,033
-301,022	-200,000	-0,005	-0,021
-300,008	-200,000	-0,022	-0,138
-298,993	112,089	0,036	-0,031
-297,978	-50,091	0,079	0,027
-296,964	-88,131	0,076	-0,016
-295,949	-32,029	-0,072	0,029
-294,935	419,744	-0,110	-0,171
-293,920	724,584	-0,020	-0,040
-292,905	-200,000	0,004	0,149
-291,891	-200,000	0,017	0,056
-290,876	-200,000	-0,036	0,126
-289,862	69,691	0,074	0,055
-288,847	97,971	0,106	-0,088
-287,832	-200,000	-0,016	0,060
-286,818	800,000	0,044	-0,132
-285,803	10,831	0,058	-0,032
-284,789	-117,613	0,080	0,010
-283,774	44,777	-0,091	0,061
-282,759	-85,023	0,066	-0,015
-281,745	-200,000	0,004	-0,160
-280,730	-111,206	-0,125	0,018
-279,716	-200,000	0,008	-0,121
-278,701	-96,664	0,027	-0,005
-277,686	-78,907	0,090	0,022
-276,672	-200,000	-0,015	0,066
-275,657	218,518	0,066	0,077
-274,643	20,219	-0,062	-0,036
-273,628	147,749	-0,121	-0,118
-272,613	-61,152	0,118	-0,036
-271,599	739,663	-0,056	0,109
-270,584	-79,011	-0,044	0,011
-269,570	123,163	0,030	0,028
-268,555	-200,000	0,002	0,037
-267,540	385,696	0,053	-0,080
-266,526	-23,342	-0,114	0,050
-265,511	714,692	-0,081	-0,156
-264,497	455,309	0,109	0,176
-263,482	249,145	0,124	0,153
-262,467	377,615	0,024	0,036
-261,453	800,000	0,018	0,040
-260,438	184,940	-0,077	-0,082
-259,424	270,294	0,054	-0,069
-258,409	-200,000	-0,034	-0,108
-257,395	70,863	-0,099	-0,074
-256,380	70,956	0,060	0,045
-255,365	800,000	0,019	0,041
-254,351	16,670	0,071	0,040
-253,336	-150,181	-0,166	0,009
-252,322	25,853	-0,105	-0,063
-251,307	-200,000	0,018	-0,113
-250,292	-26,198	0,085	-0,036
-249,278	800,000	0,024	-0,065
-248,263	-102,525	0,083	0,014
-247,249	67,536	0,096	0,071
-246,234	-200,000	0,008	-0,111
-245,219	230,004	0,049	0,058
-244,205	800,000	-0,062	0,126
-243,190	-200,000	-0,004	-0,048
-242,176	-91,945	0,154	0,031
-241,161	-169,616	0,051	-0,001
-240,146	-149,418	-0,051	-0,003
-239,132	585,745	-0,032	0,056
-238,117	168,176	-0,097	-0,100
-237,103	-200,000	0,014	-0,050
-236,088	-200,000	-0,010	-0,191
-235,073	-200,000	0,011	-0,053
-234,059	800,000	-0,038	0,094
-233,044	-115,442	0,096	-0,013
-232,030	265,190	-0,064	0,081
-231,015	-85,032	-0,096	0,022
-230,000	-45,583	-0,159	0,057
-228,986	-86,409	0,091	-0,020
-227,971	110,454	0,102	-0,088
-226,957	-32,382	0,035	0,014
-225,942	49,105	-0,034	-0,023
-224,927	-161,513	-0,146	-0,005
-223,913	-4,466	-0,040	0,020
-222,898	197,924	0,047	-0,052
-221,884	105,837	-0,112	-0,096
-220,869	78,778	-0,087	0,067
-219,855	255,820	0,064	0,079
-218,840	98,494	-0,075	0,062
-217,825	465,341	0,042	-0,068
-216,811	-86,619	-0,111	-0,024
-215,796	-200,000	0,003	0,013
-214,782	-200,000	0,026	0,085
-213,767	-150,848	0,162	-0,009
-212,752	94,886	0,057	-0,047
-211,738	176,060	0,047	0,049
-210,723	-120,718	0,104	-0,013
-209,709	301,015	0,047	-0,062
-208,694	18,684	-0,124	-0,071
-207,679	-200,000	-0,030	-0,117
-206,665	750,093	-0,037	0,073
-205,650	-12,100	0,122	0,057
-204,636	-173,989	0,166	0,003
-203,621	-200,000	-0,001	-0,006
-202,606	-200,000	0,017	-0,143
-201,592	216,274	-0,005	-0,006
-200,577	-14,520	-0,133	0,061
-199,563	150,305	-0,120	0,118
-198,548	-172,344	0,135	-0,003
-197,533	299,065	-0,113	0,150
-196,519	53,408	-0,114	-0,079
-195,504	189,334	0,051	-0,055
-194,490	-96,495	0,094	0,018
-193,475	-200,000	-0,010	-0,086
-192,460	42,296	0,116	-0,076
-191,446	-142,850	-0,052	0,004
-190,431	53,174	0,119	-0,082
-189,417	800,000	0,032	-0,066
-188,402	-132,336	0,079	-0,007
-187,387	92,282	-0,028	0,023
-186,373	-200,000	-0,002	-0,120
-185,358	-200,000	0,009	0,102
-184,344	-167,001	0,075	-0,002
-183,329	256,730	0,056	0,070
-182,315	263,178	0,067	-0,084
-181,300	66,920	-0,046	-0,034
-180,285	-77,566	-0,075	0,019
-179,271	800,000	0,037	0,076
-178,256	688,100	-0,014	-0,026
-177,242	77,800	-0,049	0,038
-176,227	-70,126	-0,050	0,014
-175,212	-152,366	0,004	-0,000
-174,198	96,810	-0,133	-0,110
-173,183	-200,000	0,007	-0,205
-172,169	72,318	-0,063	-0,048
-171,154	35,972	-0,066	-0,042
-170,139	90,994	-0,041	-0,033
-169,125	-200,000	0,012	-0,105
-168,110	673,750	0,053	0,099
-167,096	-125,423	0,056	0,006
-166,081	20,640	0,065	-0,038
-165,066	338,167	-0,089	-0,125
-164,052	156,344	0,007	0,007
-163,037	-157,389	0,055	-0,002
-162,023	573,195	0,065	0,115
-161,008	-141,004	0,048	0,003
-159,993	75,405	0,086	-0,065
-158,979	800,000	-0,089	0,181
-157,964	253,873	-0,071	-0,088
-156,950	-200,000	-0,022	-0,115
-155,935	136,784	-0,063	0,059
-154,920	20,671	0,069	-0,040
-153,906	345,373	0,051	0,072
-152,891	800,000	-0,022	-0,048
-151,877	-138,786	-0,148	0,011
-150,862	-200,000	0,004	0,056
-149,847	-100,327	0,069	0,012
-148,833	-133,801	-0,119	-0,011
-147,818	800,000	0,072	-0,149
-146,804	31,198	-0,049	-0,030
-145,789	-200,000	-0,020	-0,078
-144,775	134,746	0,077	-0,072
-143,760	57,445	-0,060	-0,042
-142,745	657,919	-0,008	-0,015
-141,731	259,747	0,036	-0,045
-140,716	19,385	0,048	0,028
-139,702	-130,949	0,075	-0,007
-138,687	180,351	0,029	0,030
-137,672	2,852	-0,058	-0,030
-136,658	114,851	-0,133	-0,117
-135,643	-200,000	0,009	0,051
-134,629	197,103	-0,151	0,166
-133,614	-200,000	-0,016	0,059
-132,599	215,818	0,078	0,089
-131,585	162,320	-0,086	0,087
-130,570	293,393	-0,026	-0,034
-129,556	19,298	-0,011	0,006
-128,541	-28,796	0,094	0,039
-127,526	-200,000	0,002	-0,127
-126,512	-127,979	0,093	-0,009
-125,497	-200,000	0,075	-0,000
-124,483	389,627	-0,082	0,123
-123,468	-200,000	0,018	0,063
-122,453	-143,102	-0,136	-0,009
-121,439	800,000	-0,042	-0,129
-120,424	-99,784	0,089	-0,016
-119,410	26,483	-0,067	-0,040
-118,395	-4,835	-0,004	-0,002
-117,380	-49,569	-0,014	0,005
-116,366	313,466	0,075	-0,102
-115,351	-200,000	0,012	-0,129
-114,337	261,657	-0,052	-0,064
-113,322	800,000	-0,045	-0,135
-112,307	800,000	-0,015	0,044
-111,293	800,000	0,034	-0,085
-110,278	-14,308	0,075	-0,035
-109,264	800,000	-0,046	0,140
-108,249	454,040	0,051	-0,081
-107,234	709,674	0,031	0,059
-106,220	-130,966	-0,022	0,002
-105,205	800,000	0,029	-0,062
-104,191	-200,000	0,002	0,023
-103,176	38,377	0,075	0,048
-102,162	-75,558	-0,073	-0,018
-101,147	-200,000	0,011	-0,086
-100,132	800,000	0,011	-0,030
-99,118	50,227	-0,153	0,103
-98,103	-200,000	-0,028	0,263
-97,089	372,143	0,078	0,115
-96,074	58,622	-0,015	0,011
-95,059	-90,060	0,096	0,020
-94,045	453,151	-0,086	-0,137
-93,030	-62,357	0,051	-0,015
-92,016	-200,000	-0,025	0,136
-91,001	5,288	0,033	0,018
-89,986	800,000	0,033	0,079
-88,972	800,000	0,038	0,089
-87,957	-200,000	0,016	0,088
-86,943	656,501	-0,027	0,051
-85,928	89,813	0,049	0,039
-84,913	8,675	0,149	-0,080
-83,899	448,304	0,053	0,084
-82,884	-90,466	0,104	-0,021
-81,870	143,417	-0,041	-0,039
-80,855	-200,000	0,004	-0,022
-79,840	-200,000	-0,035	0,207
-78,826	47,427	-0,101	-0,067
-77,811	800,000	-0,015	0,039
-76,797	-200,000	-0,001	0,134
-75,782	-200,000	-0,001	0,030
-74,767	800,000	-0,040	-0,114
-73,753	384,472	-0,047	-0,070
-72,738	-40,476	-0,039	-0,014
-71,724	91,805	-0,071	0,057
-70,709	497,344	-0,030	0,049
-69,694	-200,000	0,016	0,052
-68,680	774,136	-0,073	-0,145
-67,665	798,279	0,027	0,054
-66,651	-200,000	-0,004	-0,187
-65,636	-200,000	-0,008	0,121
-64,622	296,352	-0,067	-0,088
-63,607	-135,511	-0,109	-0,009
-62,592	-200,000	-0,000	0,096
-61,578	-200,000	0,020	0,072
-60,563	-200,000	-0,012	-0,107
-59,549	-200,000	-0,034	0,155
-58,534	-2,096	-1,999	-1,005
-57,519	800,000	-0,317	-0,744
-56,505	-200,000	-1,280	-4,754
-55,490	20,698	0,879	0,510
-54,476	800,000	5,282	12,160
-53,461	-200,000	17,622	283,427
-52,446	800,000	725,499	2217,367
-51,432	537,298	1641,541	2809,094
-50,417	110,363	1632,439	1407,167
-49,403	74,936	1285,932	970,904
-48,388	32,095	1027,699	634,446
-47,373	20,127	989,607	571,465
-46,359	18,562	977,441	559,288
-45,344	15,818	973,558	548,064
-44,330	16,011	972,133	547,873
-43,315	15,576	970,437	545,476
-42,300	15,523	969,292	544,637
-41,286	15,473	968,253	543,868
-40,271	15,526	967,032	543,331
-39,257	15,546	966,172	542,894
-38,242	15,509	965,434	542,335
-37,227	15,578	964,584	542,060
-36,213	15,598	963,723	541,620
-35,198	15,555	962,790	540,936
-34,184	15,555	962,039	540,492
-33,169	15,512	961,209	539,867
-32,154	15,498	960,323	539,303
-31,140	15,502	959,500	538,830
-30,125	15,617	958,675	538,717
-29,111	15,575	957,831	538,085
-28,096	15,535	957,348	537,665
-27,082	15,520	956,515	537,127
-26,067	15,533	955,715	536,698
-25,052	15,527	955,037	536,277
-24,038	15,575	954,022	535,839
-23,023	15,547	953,696	535,547
-22,009	15,554	952,971	535,140
-20,994	15,514	952,393	534,666
-19,979	15,569	951,743	534,456
-18,965	15,491	951,129	533,841
-17,950	15,619	950,503	533,875
-16,936	15,580	949,776	533,324
-15,921	15,480	949,141	532,625
-14,906	15,445	948,447	532,105
-13,892	15,398	947,962	531,660
-12,877	15,421	947,229	531,302
-11,863	15,436	946,446	530,890
-10,848	15,425	946,162	530,673
-9,833	15,527	945,601	530,662
-8,819	15,490	944,992	530,181
-7,804	15,415	944,438	529,612
-6,790	15,465	943,639	529,300
-5,775	15,470	943,133	529,012
-4,760	15,450	942,605	528,632
-3,746	15,448	941,939	528,232
-2,731	15,307	941,273	527,391
-1,717	15,267	940,571	526,849
-0,702	15,282	939,921	526,513
0,313	15,094	939,242	526,333
1,327	18,281	936,921	535,024
2,342	27,136	794,600	477,217
3,356	24,079	459,201	271,085
4,371	-2,698	314,371	157,142
5,386	-6,818	296,486	144,017
6,400	-8,615	290,238	139,187
7,415	-9,042	287,881	137,623
8,429	-9,304	286,287	136,592
9,444	-9,393	285,393	136,066
10,459	-9,167	284,756	135,970
11,473	-9,426	284,213	135,447
12,488	-9,341	283,690	135,268
13,502	-9,261	283,171	135,087
14,517	-9,368	282,662	134,728
15,531	-9,651	282,314	134,277
16,546	-9,362	281,725	134,263
17,561	-9,421	281,440	134,059
18,575	-9,448	281,162	133,888
19,590	-9,522	280,644	133,559
20,604	-9,654	280,503	133,354
21,619	-9,576	280,098	133,224
22,634	-9,297	279,730	133,304
23,648	-9,577	279,539	132,934
24,663	-9,551	279,073	132,725
25,677	-9,704	279,063	132,562
26,692	-9,324	278,637	132,709
27,707	-9,451	278,317	132,425
28,721	-9,481	278,133	132,297
29,736	-9,684	277,950	132,005
30,750	-9,477	277,537	131,994
31,765	-9,492	277,324	131,866
32,780	-9,676	277,308	131,672
33,794	-9,626	276,826	131,480
34,809	-9,421	276,583	131,545
35,823	-9,642	276,288	131,186
36,838	-9,479	276,075	131,226
37,853	-9,711	275,901	130,913
38,867	-9,718	275,531	130,719
39,882	-9,724	275,333	130,608
40,896	-9,677	275,148	130,553
41,911	-9,738	275,055	130,440
42,926	-9,600	274,751	130,413
43,940	-9,742	274,374	130,090
44,955	-9,640	274,095	130,041
45,969	-9,790	273,883	129,789
46,984	-9,836	273,673	129,635
47,999	-10,145	273,435	129,222
49,013	-10,215	273,101	128,988
50,028	-10,247	272,780	128,795
51,042	-10,502	272,534	128,430
52,057	-10,419	272,387	128,427
53,071	-10,333	272,108	128,364
54,086	-10,004	271,934	128,575
55,101	-10,075	271,906	128,484
56,115	-9,982	271,761	128,491
57,130	-9,553	271,533	128,769
58,144	-9,242	271,369	128,967
59,159	-9,644	271,148	128,479
60,174	-9,410	270,949	128,589
61,188	-9,316	270,540	128,469
62,203	-9,433	270,613	128,385
63,217	-9,381	270,224	128,237
64,232	-9,515	270,087	128,037
65,247	-9,362	269,859	128,058
66,261	-9,484	269,527	127,778
67,276	-9,668	269,260	127,471
68,290	-9,683	268,940	127,294
69,305	-9,800	268,684	127,055
70,320	-9,694	268,663	127,131
71,334	-9,756	268,485	126,979
72,349	-9,602	268,379	127,058
73,363	-9,209	267,982	127,216
74,378	-9,478	267,908	126,925
75,393	-9,434	267,614	126,815
76,407	-9,480	267,281	126,603
77,422	-9,587	267,219	126,466
78,436	-9,316	266,906	126,552
79,451	-9,493	266,903	126,379
80,466	-9,528	266,591	126,188
81,480	-9,807	266,288	125,781
82,495	-9,800	266,112	125,693
83,509	-9,620	265,869	125,730
84,524	-9,782	265,727	125,505
85,539	-9,776	265,378	125,335
86,553	-9,803	265,194	125,212
87,568	-9,731	265,075	125,210
88,582	-9,714	264,878	125,121
89,597	-9,752	264,629	124,957
90,611	-9,595	264,592	125,070
91,626	-9,529	264,527	125,088
92,641	-9,671	264,250	124,818
93,655	-9,413	263,851	124,850
94,670	-9,466	263,642	124,692
95,684	-9,511	263,485	124,566
96,699	-9,505	263,329	124,487
97,714	-9,577	263,186	124,344
98,728	-9,644	262,760	124,071
99,743	-9,956	262,664	123,737
100,757	-9,898	262,566	123,732
101,772	-9,761	262,302	123,719
102,787	-9,751	262,071	123,607
103,801	-9,657	261,919	123,608
104,816	-9,563	261,808	123,628
105,830	-9,521	261,614	123,563
106,845	-9,373	261,286	123,528
107,860	-9,446	261,081	123,355
108,874	-9,486	260,883	123,215
109,889	-9,436	260,783	123,201
110,903	-9,488	260,484	123,003
111,918	-9,586	260,370	122,852
112,933	-9,480	260,244	122,875
113,947	-9,516	260,182	122,803
114,962	-9,296	259,758	122,786
115,976	-9,434	259,648	122,601
116,991	-9,311	259,381	122,573
118,006	-9,536	259,312	122,331
119,020	-9,491	258,943	122,186
120,035	-9,451	259,009	122,241
121,049	-9,493	258,842	122,114
122,064	-9,539	258,715	122,003
123,079	-9,379	258,378	121,973
124,093	-9,535	258,131	121,710
125,108	-9,650	257,914	121,496
126,122	-9,984	257,577	121,035
127,137	-10,138	257,390	120,802
128,151	-9,914	257,314	120,951
129,166	-9,838	257,096	120,904
130,181	-9,869	256,888	120,768
131,195	-9,973	256,714	120,585
132,210	-9,618	256,535	120,798
133,224	-9,355	256,355	120,931
134,239	-9,572	256,187	120,653
135,254	-9,467	256,175	120,728
136,268	-9,448	255,631	120,477
137,283	-9,730	255,519	120,170
138,297	-9,886	255,261	119,903
139,312	-9,799	255,105	119,894
140,327	-9,512	255,032	120,097
141,341	-9,397	254,937	120,140
142,356	-9,267	254,699	120,130
143,370	-9,211	254,472	120,060
144,385	-9,220	254,438	120,025
145,400	-9,099	254,155	119,985
146,414	-9,386	254,081	119,693
147,429	-9,303	253,750	119,597
148,443	-9,183	253,605	119,621
149,458	-9,171	253,627	119,631
150,473	-9,158	253,212	119,436
151,487	-9,358	253,162	119,231
152,502	-9,202	252,894	119,227
153,516	-9,105	252,566	119,145
154,531	-9,393	252,633	118,920
155,546	-9,411	252,437	118,802
156,560	-9,447	252,200	118,649
157,575	-9,573	251,935	118,407
158,589	-9,461	251,816	118,435
159,604	-9,257	251,632	118,512
160,619	-9,247	251,469	118,433
161,633	-9,346	251,303	118,260
162,648	-9,456	251,147	118,083
163,662	-9,079	250,896	118,274
164,677	-9,170	250,798	118,139
165,692	-9,156	250,611	118,053
166,706	-9,283	250,503	117,884
167,721	-9,325	250,222	117,706
168,735	-9,399	250,128	117,588
169,750	-9,194	250,053	117,716
170,764	-9,078	249,821	117,694
171,779	-9,126	249,575	117,527
172,794	-9,136	249,492	117,469
173,808	-9,126	249,356	117,403
174,823	-9,767	249,042	116,706
175,837	-9,739	248,710	116,564
176,852	-9,525	248,948	116,845
177,867	-9,253	248,641	116,918
178,881	-9,061	248,387	116,949
179,896	-9,283	248,478	116,795
180,910	-9,044	248,133	116,823
181,925	-9,041	247,892	116,701
182,940	-9,224	247,701	116,448
183,954	-9,120	247,636	116,494
184,969	-9,254	247,449	116,284
185,983	-8,984	247,240	116,400
186,998	-9,278	247,203	116,128
188,013	-9,117	247,021	116,166
189,027	-9,028	246,830	116,139
190,042	-9,084	246,632	115,990
191,056	-9,170	246,516	115,853
192,071	-8,945	246,195	115,879
193,086	-9,133	246,214	115,722
194,100	-9,121	245,922	115,584
195,115	-9,238	245,771	115,406
196,129	-9,124	245,513	115,369
197,144	-9,111	245,322	115,279
198,159	-9,187	245,146	115,124
199,173	-9,125	244,936	115,065
200,188	-9,079	244,807	115,033
201,202	-9,238	244,500	114,747
202,217	-9,548	244,218	114,351
203,232	-9,786	244,109	114,093
204,246	-9,312	244,167	114,500
205,261	-8,949	244,100	114,756
206,275	-9,215	243,921	114,444
207,290	-5,416	245,309	118,215
208,304	0,731	247,422	124,318
209,319	3,616	247,987	126,980
210,334	3,877	248,026	127,205
211,348	4,365	247,850	127,506
212,363	4,700	247,670	127,680
213,377	4,564	247,729	127,586
214,392	4,479	247,434	127,352
215,407	4,394	247,310	127,207
216,421	4,371	247,026	127,031
217,436	4,532	247,015	127,146
218,450	4,703	246,864	127,198
219,465	4,378	246,591	126,779
220,480	4,242	246,405	126,560
221,494	4,139	246,208	126,364
222,509	4,266	246,063	126,382
223,523	4,074	245,931	126,146
224,538	3,840	245,654	125,801
225,553	3,883	245,521	125,757
226,567	4,047	245,330	125,781
227,582	4,016	245,340	125,750
228,596	4,039	245,109	125,639
229,611	3,801	244,834	125,293
230,626	3,773	244,785	125,234
231,640	3,937	244,460	125,190
232,655	3,977	244,486	125,224
233,669	3,961	244,207	125,057
234,684	3,870	244,026	124,880
235,699	4,145	243,977	125,067
236,713	4,349	243,881	125,172
237,728	4,060	243,547	124,755
238,742	3,659	243,398	124,343
239,757	3,647	243,217	124,229
240,772	3,833	242,975	124,245
241,786	3,791	243,080	124,254
242,801	3,726	242,829	124,062
243,815	3,848	242,617	124,041
244,830	3,977	242,497	124,073
245,844	3,999	242,430	124,045
246,859	4,179	242,052	123,986
247,874	3,849	241,845	123,604
248,888	3,964	241,738	123,630
249,903	4,105	241,785	123,756
250,917	4,203	241,569	123,713
251,932	4,236	241,444	123,665
252,947	4,241	241,239	123,553
253,961	3,878	241,084	123,172
254,976	3,845	241,000	123,092
255,990	4,068	240,882	123,199
257,005	4,142	240,505	123,054
258,020	3,894	240,488	122,836
259,034	3,787	240,503	122,747
260,049	4,129	240,186	122,848
261,063	3,795	239,906	122,427
262,078	3,815	239,718	122,336
263,093	4,077	239,785	122,568
264,107	4,157	239,566	122,509
265,122	3,872	239,337	122,155
266,136	3,991	239,299	122,218
267,151	4,133	239,220	122,280
268,166	3,884	238,932	121,925
269,180	3,831	238,710	121,758
270,195	4,203	238,624	121,998
271,209	4,599	238,725	122,352
272,224	4,225	238,320	121,838
273,239	3,753	237,994	121,288
274,253	3,784	238,052	121,331
275,268	4,042	237,871	121,432
276,282	4,150	237,659	121,398
277,297	3,844	237,392	121,010
278,312	3,774	237,311	120,903
279,326	4,028	237,296	121,084
280,341	4,322	237,113	121,211
281,355	3,992	236,982	120,874
282,370	4,158	236,815	120,908
283,384	4,212	236,703	120,883
284,399	3,720	236,440	120,352
285,414	3,720	236,249	120,244
286,428	3,802	236,151	120,247
287,443	4,086	235,945	120,355
288,457	3,931	235,928	120,214
289,472	4,088	235,771	120,245
290,487	3,894	235,516	119,953
291,501	3,913	235,341	119,868
292,516	3,798	235,150	119,670
293,530	3,682	235,122	119,555
294,545	3,914	234,999	119,663
295,560	3,986	234,833	119,624
296,574	3,768	234,577	119,313
297,589	3,762	234,620	119,320
298,603	3,975	234,607	119,468
299,618	4,048	234,454	119,437
300,633	4,141	234,191	119,364
301,647	4,037	234,177	119,265
302,662	4,421	234,011	119,467
303,676	4,538	233,732	119,405
304,691	4,267	233,725	119,180
305,706	4,491	233,478	119,217
306,720	4,488	233,252	119,089
307,735	4,073	233,255	118,760
308,749	4,152	232,996	118,678
309,764	3,756	232,885	118,306
310,779	3,983	232,576	118,313
311,793	3,778	232,305	118,007
312,808	3,705	232,260	117,918
313,822	3,654	232,008	117,740
314,837	3,860	231,805	117,785
315,852	3,782	231,736	117,679
316,866	4,042	231,661	117,830
317,881	4,231	231,442	117,852
318,895	4,013	231,451	117,680
319,910	4,113	231,145	117,590
320,925	3,977	231,338	117,574
321,939	4,136	231,024	117,525
322,954	4,386	230,984	117,685
323,968	4,131	230,733	117,353
324,983	3,863	230,680	117,111
325,997	4,013	230,332	117,038
327,012	4,273	230,227	117,171
328,027	4,320	230,172	117,169
329,041	4,419	230,118	117,206
330,056	4,851	230,082	117,506
331,070	4,710	230,064	117,378
332,085	4,394	229,722	116,954
333,100	4,358	229,464	116,785
334,114	4,186	229,381	116,602
335,129	4,256	229,172	116,538
336,143	4,418	229,195	116,662
337,158	4,370	229,049	116,542
338,173	4,253	228,753	116,292
339,187	4,147	228,566	116,107
340,202	4,124	228,463	116,027
341,216	4,224	228,285	116,001
342,231	4,091	228,163	115,829
343,246	4,128	227,950	115,738
344,260	4,258	227,941	115,821
345,275	4,314	227,970	115,867
346,289	4,390	227,677	115,765
347,304	4,539	227,454	115,753
348,319	4,306	227,349	115,515
349,333	4,128	227,217	115,304
350,348	4,061	227,030	115,149
351,362	4,144	226,954	115,162
352,377	3,989	226,553	114,833
353,392	3,824	226,632	114,739
354,406	3,778	226,424	114,590
355,421	194,982	1320,524	1395,345
356,435	156,292	1453,822	1395,356
