DTS Sentinel unit serial number:	SN410029Multiplexer serial number:	ORYXHardware model number:	OX2-SRSoftware version number:	ORYX F/W v4,00 Oryx Data Collector v3.7.2.0data status	okinstallation	B5 Nyhavnadifferential loss correction	single-endedforward channel	channel 2reverse channel	N/Adate	2023/12/14time	15:17:13forward acquisition time	300,00reverse acquisition time	0,00gamma	499,1914k internal	0,3157k external	0,3157temperature offset calibration	1,0000default loss term (dB/km)	0,3820temperature slope calibration	1,0000multiplexer offset coefficient	1,0000multiplexer slope coefficient	1,0000fibre end	0,00T internal ref (°C)	7,91T ext. ref 1 (°C)	-8,27T ext. ref 2 (°C)	-8,33length (m)	temperature (°C)	Stokes	anti-Stokes-744,400	-159,849	0,101	0,004
-743,385	-47,901	-0,369	-0,131
-742,371	94,001	0,202	0,169
-741,356	-116,458	-0,360	0,048
-740,342	-1,477	0,240	0,125
-739,327	-60,482	-0,332	-0,103
-738,312	129,249	0,082	0,077
-737,298	-111,909	-0,332	-0,049
-736,283	-71,718	0,208	0,057
-735,269	-111,730	-0,422	-0,062
-734,254	-50,486	0,172	0,060
-733,239	-6,426	-0,641	-0,321
-732,225	16,518	0,312	0,181
-731,210	166,574	-0,106	0,111
-730,196	800,000	0,009	0,028
-729,181	157,508	-0,098	-0,100
-728,167	-200,000	0,001	0,030
-727,152	54,465	0,020	-0,014
-726,137	-53,619	-0,058	0,019
-725,123	586,393	-0,025	-0,046
-724,108	-200,000	-0,007	0,105
-723,094	71,417	-0,079	-0,060
-722,079	-200,000	0,010	-0,099
-721,064	0,193	0,046	-0,024
-720,050	163,696	-0,058	-0,060
-719,035	-56,113	-0,109	-0,035
-718,021	-49,400	0,038	0,013
-717,006	-200,000	0,025	-0,123
-715,991	222,069	-0,029	-0,034
-714,977	-115,325	-0,156	-0,021
-713,962	-200,000	0,013	-0,082
-712,948	308,976	0,079	-0,110
-711,933	-200,000	0,004	-0,035
-710,918	-59,283	-0,150	0,047
-709,904	154,027	-0,194	-0,196
-708,889	-200,000	-0,086	-0,000
-707,875	309,455	-0,076	-0,105
-706,860	115,234	0,059	0,053
-705,845	310,967	0,038	-0,052
-704,831	-145,744	-0,113	0,007
-703,816	-200,000	-0,002	-0,048
-702,802	254,257	-0,040	-0,051
-701,787	475,389	0,097	-0,161
-700,772	-35,964	-0,032	-0,013
-699,758	155,059	0,023	0,023
-698,743	154,146	0,152	0,153
-697,729	2,946	0,024	-0,013
-696,714	-200,000	0,022	0,096
-695,699	-33,488	0,018	-0,007
-694,685	6,308	-0,093	-0,051
-693,670	-200,000	0,036	-0,117
-692,656	206,287	-0,038	0,044
-691,641	-200,000	0,020	0,113
-690,627	-200,000	-0,029	0,150
-689,612	-200,000	0,033	0,192
-688,597	-200,000	0,008	-0,110
-687,583	-200,000	-0,006	-0,057
-686,568	-200,000	0,004	0,056
-685,554	800,000	0,011	0,026
-684,539	-200,000	0,020	-0,069
-683,524	-167,633	0,023	0,001
-682,510	-200,000	-0,002	0,135
-681,495	251,244	0,030	-0,038
-680,481	800,000	-0,071	-0,156
-679,466	-200,000	-0,015	-0,087
-678,451	-47,185	0,071	-0,025
-677,437	-90,525	-0,113	-0,024
-676,422	-200,000	0,003	-0,037
-675,408	30,487	0,057	-0,036
-674,393	23,619	-0,048	0,029
-673,378	-67,676	-0,048	0,014
-672,364	-200,000	-0,032	0,212
-671,349	-200,000	-0,158	-0,000
-670,335	-200,000	0,021	0,116
-669,320	-200,000	-0,025	-0,092
-668,305	800,000	-0,047	-0,117
-667,291	103,752	-0,046	-0,039
-666,276	-2,904	-0,095	0,049
-665,262	-9,071	0,069	-0,034
-664,247	6,656	-0,095	0,052
-663,232	63,665	-0,048	-0,035
-662,218	-200,000	-0,024	0,119
-661,203	165,959	0,120	0,125
-660,189	800,000	-0,039	0,097
-659,174	-11,248	0,038	0,018
-658,159	-43,849	0,057	0,021
-657,145	323,412	0,097	-0,136
-656,130	-72,602	-0,025	0,007
-655,116	110,260	-0,017	-0,015
-654,101	-154,521	0,145	0,007
-653,086	-200,000	-0,000	-0,057
-652,072	-106,920	-0,120	-0,019
-651,057	-18,591	0,034	-0,016
-650,043	364,789	0,102	0,151
-649,028	-200,000	-0,011	-0,038
-648,014	-9,153	0,083	-0,041
-646,999	-100,620	-0,017	0,003
-645,984	429,557	0,047	0,075
-644,970	-166,077	-0,088	0,003
-643,955	-170,219	-0,068	0,002
-642,941	-107,688	-0,039	-0,006
-641,926	149,991	-0,064	-0,064
-640,911	-200,000	-0,034	0,184
-639,897	800,000	0,057	0,164
-638,882	27,758	0,062	-0,039
-637,868	-200,000	-0,011	0,171
-636,853	30,102	-0,084	0,053
-635,838	800,000	-0,087	0,210
-634,824	463,228	-0,085	-0,140
-633,809	-110,746	0,149	0,022
-632,795	13,659	0,080	0,045
-631,780	128,909	0,039	0,037
-630,765	-199,507	-0,028	-0,000
-629,751	-89,859	-0,222	-0,047
-628,736	59,081	0,153	-0,111
-627,722	126,444	-0,073	-0,068
-626,707	-200,000	0,008	0,042
-625,692	-36,284	-0,044	0,017
-624,678	-116,452	0,017	-0,002
-623,663	-98,862	-0,098	-0,018
-622,649	-108,558	0,131	0,021
-621,634	-118,847	-0,135	0,017
-620,619	401,252	0,039	-0,060
-619,605	491,426	-0,036	0,060
-618,590	-100,629	-0,128	0,023
-617,576	800,000	-0,017	-0,041
-616,561	-152,647	0,021	-0,001
-615,546	-0,522	0,044	0,023
-614,532	800,000	-0,038	-0,089
-613,517	0,184	-0,125	-0,065
-612,503	7,618	0,143	-0,078
-611,488	800,000	-0,050	0,108
-610,474	-62,435	0,138	0,042
-609,459	-200,000	0,003	-0,033
-608,444	-15,100	-0,116	0,054
-607,430	149,921	0,072	0,071
-606,415	155,788	0,034	-0,035
-605,401	411,257	0,051	0,079
-604,386	375,178	-0,021	-0,032
-603,371	167,466	0,128	0,133
-602,357	800,000	-0,049	0,148
-601,342	-79,514	-0,112	0,028
-600,328	-93,070	-0,035	-0,007
-599,313	-138,511	-0,116	-0,009
-598,298	-200,000	-0,001	-0,011
-597,284	-200,000	0,026	-0,090
-596,269	-158,603	-0,042	-0,002
-595,255	529,331	0,104	0,181
-594,240	-73,984	-0,089	-0,023
-593,225	800,000	-0,038	-0,094
-592,211	-200,000	-0,012	0,046
-591,196	225,528	-0,035	0,042
-590,182	24,432	0,081	-0,049
-589,167	-21,833	0,076	-0,034
-588,152	289,088	-0,073	-0,097
-587,138	64,183	0,017	0,013
-586,123	26,833	-0,075	-0,046
-585,109	-200,000	-0,007	-0,029
-584,094	440,397	0,038	-0,061
-583,079	800,000	-0,007	-0,021
-582,065	-76,982	-0,024	0,006
-581,050	-200,000	-0,010	0,032
-580,036	276,984	-0,048	-0,063
-579,021	-130,071	0,185	0,018
-578,006	-119,280	-0,136	0,017
-576,992	-17,423	0,109	0,050
-575,977	40,143	-0,092	-0,060
-574,963	800,000	-0,029	0,063
-573,948	800,000	0,030	-0,067
-572,934	117,239	0,102	-0,092
-571,919	-9,845	-0,090	-0,044
-570,904	12,422	0,042	-0,024
-569,890	-200,000	-0,031	-0,118
-568,875	647,170	0,018	0,034
-567,861	63,939	0,055	0,041
-566,846	-200,000	-0,011	0,104
-565,831	303,518	-0,007	-0,009
-564,817	-22,104	-0,205	-0,091
-563,802	-165,945	-0,060	-0,002
-562,788	-65,296	0,088	-0,026
-561,773	6,499	-0,032	-0,017
-560,758	-32,578	0,089	-0,036
-559,744	513,173	0,059	0,101
-558,729	20,624	0,009	-0,005
-557,715	24,794	-0,052	-0,032
-556,700	-200,000	-0,008	0,051
-555,685	201,731	-0,098	-0,110
-554,671	800,000	-0,011	-0,027
-553,656	114,333	0,063	-0,056
-552,642	489,382	0,060	-0,100
-551,627	-200,000	0,006	-0,187
-550,612	125,144	-0,015	-0,014
-549,598	800,000	-0,008	0,019
-548,583	-200,000	-0,015	-0,137
-547,569	-33,621	-0,099	-0,040
-546,554	-54,531	-0,084	0,028
-545,539	46,099	-0,053	-0,036
-544,525	800,000	0,045	0,120
-543,510	-134,166	-0,136	-0,012
-542,496	-136,953	-0,213	-0,018
-541,481	36,645	-0,071	0,046
-540,466	106,101	0,035	-0,030
-539,452	-200,000	-0,002	0,075
-538,437	251,014	0,083	0,104
-537,423	-109,938	-0,071	0,011
-536,408	-31,976	-0,047	-0,019
-535,393	683,718	-0,025	0,048
-534,379	58,467	-0,140	-0,101
-533,364	88,977	0,036	-0,029
-532,350	-200,000	0,001	0,034
-531,335	-74,942	0,103	0,027
-530,321	141,064	-0,050	-0,048
-529,306	-200,000	0,037	0,149
-528,291	57,115	-0,054	-0,038
-527,277	-76,787	-0,087	-0,022
-526,262	-41,764	0,093	0,035
-525,248	-130,073	-0,009	0,001
-524,233	-156,291	0,103	-0,005
-523,218	52,220	-0,064	-0,045
-522,204	-53,626	-0,178	-0,059
-521,189	127,161	0,036	-0,034
-520,175	393,342	0,058	-0,088
-519,160	587,228	0,035	-0,063
-518,145	313,539	0,037	0,050
-517,131	800,000	0,009	-0,023
-516,116	-200,000	0,009	0,033
-515,102	129,753	0,029	-0,027
-514,087	-4,869	-0,105	0,053
-513,072	6,833	0,066	0,036
-512,058	800,000	-0,035	-0,102
-511,043	-122,684	-0,020	-0,002
-510,029	48,942	-0,072	-0,049
-509,014	197,050	0,081	-0,090
-507,999	-200,000	0,004	-0,070
-506,985	76,318	0,025	-0,020
-505,970	65,122	0,084	-0,062
-504,956	-96,266	-0,141	-0,027
-503,941	-58,083	-0,136	0,043
-502,926	-99,934	-0,063	-0,011
-501,912	800,000	0,022	-0,049
-500,897	800,000	0,052	0,109
-499,883	56,244	-0,104	0,074
-498,868	64,434	0,053	-0,039
-497,853	-200,000	-0,011	-0,075
-496,839	-182,973	0,136	0,002
-495,824	83,235	0,123	0,098
-494,810	-200,000	-0,003	0,027
-493,795	367,435	0,071	0,105
-492,781	-200,000	-0,009	-0,037
-491,766	-200,000	0,018	0,079
-490,751	800,000	-0,007	0,018
-489,737	86,242	0,114	-0,092
-488,722	21,007	0,070	-0,041
-487,708	296,518	0,039	0,053
-486,693	-200,000	-0,008	0,088
-485,678	-200,000	-0,014	-0,068
-484,664	800,000	-0,030	0,091
-483,649	-12,526	-0,151	-0,072
-482,635	-200,000	-0,010	0,100
-481,620	-147,817	-0,137	-0,008
-480,605	-134,602	-0,114	-0,010
-479,591	-200,000	-0,001	0,031
-478,576	-200,000	-0,017	0,174
-477,562	-3,190	0,039	-0,020
-476,547	333,010	-0,093	-0,131
-475,532	800,000	0,050	-0,138
-474,518	-84,970	-0,128	-0,029
-473,503	60,568	0,035	0,025
-472,489	469,905	0,025	0,040
-471,474	241,800	0,116	0,142
-470,459	-141,587	-0,133	0,010
-469,445	-200,000	-0,018	0,166
-468,430	-200,000	-0,017	-0,095
-467,416	-73,321	-0,074	0,020
-466,401	424,635	-0,050	0,078
-465,386	152,150	-0,027	0,027
-464,372	-200,000	-0,033	0,132
-463,357	-137,989	-0,085	0,007
-462,343	-200,000	-0,015	0,143
-461,328	-9,561	0,116	-0,056
-460,313	-200,000	-0,014	-0,171
-459,299	-164,434	0,069	0,002
-458,284	-112,133	0,088	-0,013
-457,270	-89,573	-0,087	-0,018
-456,255	21,810	0,183	-0,109
-455,241	-200,000	0,021	0,102
-454,226	800,000	-0,044	0,092
-453,211	9,195	0,029	0,016
-452,197	-200,000	0,029	-0,133
-451,182	-11,490	-0,066	0,031
-450,168	284,185	0,027	0,035
-449,153	-200,000	-0,021	-0,116
-448,138	38,157	-0,119	0,077
-447,124	-176,567	-0,171	-0,003
-446,109	800,000	-0,022	0,063
-445,095	143,783	-0,120	0,116
-444,080	190,284	-0,019	-0,021
-443,065	-200,000	-0,009	-0,047
-442,051	-127,427	0,035	-0,004
-441,036	800,000	0,017	0,038
-440,022	55,485	0,047	-0,033
-439,007	800,000	-0,021	0,044
-437,992	93,963	-0,081	0,067
-436,978	-35,192	0,040	0,016
-435,963	670,336	0,056	-0,107
-434,949	-144,323	0,186	0,012
-433,934	63,379	-0,031	0,022
-432,919	-200,000	-0,009	-0,188
-431,905	668,224	0,038	0,072
-430,890	72,892	0,041	-0,031
-429,876	-200,000	-0,006	0,028
-428,861	800,000	0,031	0,086
-427,846	-200,000	0,010	-0,104
-426,832	-200,000	0,002	-0,141
-425,817	-200,000	0,004	-0,043
-424,803	35,743	0,069	0,044
-423,788	-200,000	-0,002	0,065
-422,773	-79,899	0,127	0,031
-421,759	318,699	0,083	0,114
-420,744	800,000	0,016	0,035
-419,730	-16,936	0,019	-0,009
-418,715	284,874	-0,024	-0,031
-417,701	-164,284	0,066	-0,002
-416,686	-200,000	-0,006	0,100
-415,671	464,395	0,086	0,140
-414,657	221,372	-0,052	0,061
-413,642	-74,102	0,121	0,032
-412,628	147,345	-0,055	-0,054
-411,613	-200,000	-0,009	-0,083
-410,598	-5,416	-0,059	0,030
-409,584	800,000	-0,011	0,029
-408,569	-200,000	0,002	-0,076
-407,555	62,167	0,093	0,068
-406,540	4,823	-0,123	0,065
-405,525	42,289	0,086	0,057
-404,511	186,337	0,055	-0,060
-403,496	399,663	0,063	0,097
-402,482	-51,896	0,042	0,014
-401,467	-154,563	0,129	-0,006
-400,452	136,046	-0,088	0,084
-399,438	-128,989	0,111	-0,011
-398,423	-91,192	0,031	0,006
-397,409	-200,000	0,010	-0,067
-396,394	30,487	0,091	-0,056
-395,379	-200,000	-0,001	-0,056
-394,365	187,990	0,045	0,049
-393,350	-200,000	0,005	0,020
-392,336	20,507	-0,069	0,040
-391,321	-109,966	-0,096	-0,014
-390,306	15,582	-0,160	-0,091
-389,292	-200,000	0,055	0,187
-388,277	225,806	-0,087	0,102
-387,263	-153,579	0,210	0,010
-386,248	-200,000	-0,007	0,048
-385,233	-200,000	0,027	-0,150
-384,219	668,408	0,054	0,102
-383,204	-12,939	-0,102	-0,048
-382,190	800,000	-0,034	0,103
-381,175	615,065	0,087	0,160
-380,160	72,559	0,104	-0,079
-379,146	-200,000	0,037	0,221
-378,131	-200,000	0,017	0,138
-377,117	800,000	0,045	0,105
-376,102	-200,000	-0,003	0,017
-375,088	375,865	0,055	-0,082
-374,073	-142,335	-0,129	-0,009
-373,058	-152,259	0,123	0,006
-372,044	800,000	0,026	-0,063
-371,029	-89,086	0,129	0,027
-370,015	800,000	0,014	0,042
-369,000	-134,507	-0,111	0,010
-367,985	-200,000	0,019	-0,304
-366,971	-200,000	0,005	0,022
-365,956	106,362	0,060	0,052
-364,942	800,000	0,030	0,083
-363,927	-200,000	0,002	0,113
-362,912	-91,829	-0,124	0,025
-361,898	-28,569	-0,046	-0,019
-360,883	-200,000	0,007	-0,060
-359,869	800,000	0,048	-0,136
-358,854	693,483	0,051	-0,097
-357,839	544,316	0,024	0,042
-356,825	196,239	-0,024	0,026
-355,810	-113,133	-0,098	0,014
-354,796	-24,721	-0,106	-0,046
-353,781	-78,297	-0,049	-0,012
-352,766	0,621	0,151	0,078
-351,752	247,650	0,040	0,050
-350,737	800,000	-0,008	0,016
-349,723	98,240	0,048	0,040
-348,708	-98,705	-0,144	-0,026
-347,693	-200,000	-0,057	-0,189
-346,679	-161,762	0,104	-0,004
-345,664	0,207	0,057	-0,029
-344,650	173,311	-0,095	0,100
-343,635	215,036	0,072	-0,083
-342,620	116,311	0,017	-0,015
-341,606	6,465	0,046	-0,025
-340,591	578,349	0,029	0,052
-339,577	79,376	-0,112	-0,087
-338,562	335,312	0,017	-0,024
-337,548	-200,000	0,016	0,062
-336,533	800,000	0,007	0,021
-335,518	764,285	0,045	0,090
-334,504	-76,168	-0,171	0,043
-333,489	-200,000	-0,011	-0,063
-332,475	-200,000	-0,042	-0,183
-331,460	800,000	0,086	-0,205
-330,445	-200,000	-0,003	-0,084
-329,431	118,467	0,072	0,065
-328,416	-35,471	-0,136	0,053
-327,402	800,000	0,033	0,078
-326,387	-35,056	0,021	0,008
-325,372	-89,500	-0,160	-0,034
-324,358	-14,729	-0,067	-0,031
-323,343	343,694	0,052	-0,074
-322,329	637,629	0,052	-0,096
-321,314	800,000	0,080	-0,173
-320,299	800,000	-0,035	0,102
-319,285	-41,218	0,112	-0,042
-318,270	39,186	0,049	-0,032
-317,256	147,718	-0,014	-0,014
-316,241	-78,622	-0,020	-0,005
-315,226	299,652	-0,017	0,023
-314,212	-200,000	0,050	-0,190
-313,197	187,098	-0,074	-0,080
-312,183	-200,000	0,003	-0,036
-311,168	-8,651	0,089	-0,043
-310,153	-102,835	0,111	-0,019
-309,139	355,237	-0,102	-0,147
-308,124	-10,100	-0,064	-0,031
-307,110	603,513	0,046	0,084
-306,095	-200,000	0,041	0,203
-305,080	282,983	0,060	0,079
-304,066	18,774	-0,054	-0,031
-303,051	-200,000	0,013	-0,134
-302,037	330,958	0,055	-0,077
-301,022	305,110	0,043	0,058
-300,008	800,000	-0,049	0,129
-298,993	-200,000	-0,003	-0,066
-297,978	800,000	0,071	0,151
-296,964	-111,838	-0,041	0,006
-295,949	-144,012	0,018	-0,001
-294,935	-200,000	-0,012	-0,054
-293,920	282,972	-0,074	-0,097
-292,905	226,698	0,054	0,063
-291,891	-23,752	-0,002	-0,001
-290,876	131,282	0,058	0,054
-289,862	-35,958	-0,076	-0,030
-288,847	-146,018	-0,096	0,006
-287,832	125,867	-0,112	-0,103
-286,818	21,060	0,136	-0,080
-285,803	-90,767	0,109	0,023
-284,789	646,741	-0,028	0,053
-283,774	-200,000	0,010	-0,111
-282,759	-49,594	-0,094	0,032
-281,745	-200,000	-0,016	-0,104
-280,730	10,170	0,070	0,039
-279,716	-200,000	0,025	-0,114
-278,701	-60,904	0,040	0,012
-277,686	233,001	-0,065	-0,077
-276,672	800,000	-0,013	0,028
-275,657	761,841	0,081	-0,159
-274,643	53,103	-0,046	0,032
-273,628	18,175	-0,103	0,059
-272,613	-200,000	-0,013	-0,144
-271,599	-83,774	0,077	0,018
-270,584	130,403	-0,033	-0,030
-269,570	-200,000	0,034	0,165
-268,555	-14,402	0,054	-0,025
-267,540	-61,066	0,061	0,018
-266,526	-24,176	-0,040	-0,017
-265,511	456,177	-0,056	0,090
-264,497	0,914	0,076	-0,040
-263,482	-142,322	-0,058	0,004
-262,467	220,276	0,025	0,029
-261,453	-25,966	0,039	-0,016
-260,438	176,070	0,079	0,083
-259,424	-49,098	-0,060	-0,021
-258,409	354,522	0,016	-0,023
-257,395	-200,000	-0,009	0,077
-256,380	-143,868	0,119	-0,008
-255,365	387,182	0,058	-0,087
-254,351	88,716	-0,046	-0,037
-253,336	277,538	-0,024	0,031
-252,322	113,490	0,100	-0,088
-251,307	800,000	0,022	-0,067
-250,292	87,381	0,066	0,053
-249,278	188,419	0,082	-0,088
-248,263	363,606	0,046	-0,068
-247,249	493,289	0,014	-0,023
-246,234	-200,000	0,001	0,005
-245,219	216,466	-0,063	-0,072
-244,205	800,000	0,003	-0,006
-243,190	800,000	0,025	-0,051
-242,176	-70,168	-0,090	0,025
-241,161	-122,441	0,199	-0,023
-240,146	88,963	0,026	-0,021
-239,132	-161,351	0,127	0,005
-238,117	800,000	0,047	0,140
-237,103	357,555	-0,024	0,035
-236,088	90,975	-0,026	-0,021
-235,073	86,910	0,066	-0,053
-234,059	-200,000	-0,003	0,121
-233,044	75,576	0,040	-0,031
-232,030	289,017	-0,060	-0,079
-231,015	625,651	0,028	0,051
-230,000	800,000	0,045	0,101
-228,986	-73,061	-0,139	0,037
-227,971	-179,384	0,049	-0,001
-226,957	-144,257	0,098	-0,006
-225,942	-200,000	-0,005	0,117
-224,927	-26,826	-0,148	0,062
-223,913	-72,311	-0,088	-0,023
-222,898	264,299	0,032	-0,041
-221,884	-200,000	0,037	-0,151
-220,869	338,235	0,048	0,068
-219,855	239,477	0,020	0,024
-218,840	224,871	0,076	0,089
-217,825	-200,000	-0,009	-0,116
-216,811	426,516	-0,091	0,143
-215,796	134,006	-0,018	-0,017
-214,782	41,657	-0,035	0,023
-213,767	-44,968	0,084	0,030
-212,752	22,911	-0,041	-0,024
-211,738	800,000	-0,045	0,102
-210,723	-57,949	-0,050	0,016
-209,709	-157,064	-0,133	-0,006
-208,694	173,178	0,053	-0,055
-207,679	800,000	-0,016	0,040
-206,665	-200,000	0,006	0,084
-205,650	-200,000	-0,008	-0,034
-204,636	99,237	-0,055	-0,046
-203,621	-200,000	-0,020	0,122
-202,606	276,480	-0,043	-0,055
-201,592	-37,988	-0,057	-0,022
-200,577	234,269	-0,029	0,034
-199,563	135,193	0,086	-0,081
-198,548	-116,918	-0,068	-0,009
-197,533	-200,000	0,011	0,144
-196,519	74,173	0,076	0,058
-195,504	-161,487	0,062	-0,002
-194,490	71,742	0,061	-0,046
-193,475	355,509	0,014	-0,021
-192,460	800,000	0,040	0,124
-191,446	60,351	-0,125	-0,089
-190,431	-125,544	0,114	0,012
-189,417	75,396	0,044	0,033
-188,402	33,329	-0,109	-0,068
-187,387	-28,791	-0,123	-0,051
-186,373	-58,340	0,123	-0,038
-185,358	-31,240	0,039	-0,016
-184,344	-200,000	0,018	0,098
-183,329	278,370	-0,109	0,141
-182,315	153,253	-0,077	0,076
-181,300	-147,718	-0,120	-0,007
-180,285	-200,000	-0,018	-0,091
-179,271	91,121	0,082	-0,066
-178,256	-193,060	-0,122	0,001
-177,242	800,000	0,030	0,064
-176,227	800,000	0,010	-0,027
-175,212	800,000	0,031	-0,076
-174,198	-146,355	0,073	-0,005
-173,183	48,465	-0,076	-0,051
-172,169	800,000	-0,039	-0,082
-171,154	-94,288	0,208	0,041
-170,139	34,587	0,065	-0,041
-169,125	-46,715	0,085	-0,030
-168,110	418,406	-0,026	-0,041
-167,096	-200,000	0,028	-0,123
-166,081	9,065	0,088	0,048
-165,066	-186,665	-0,130	0,001
-164,052	319,908	-0,052	0,071
-163,037	-200,000	-0,020	-0,071
-162,023	-200,000	-0,017	0,091
-161,008	-85,212	-0,023	0,005
-159,993	-30,705	-0,112	-0,045
-158,979	169,045	0,052	-0,053
-157,964	-200,000	-0,009	0,051
-156,950	-80,444	-0,037	-0,009
-155,935	800,000	-0,027	0,062
-154,920	800,000	-0,008	-0,021
-153,906	103,346	0,036	-0,030
-152,891	23,158	0,127	0,075
-151,877	-104,049	0,060	-0,010
-150,862	-117,209	-0,011	-0,001
-149,847	-200,000	0,003	-0,023
-148,833	-67,710	-0,015	0,004
-147,818	-103,484	0,016	0,003
-146,804	-59,559	0,148	0,046
-145,789	800,000	0,061	0,127
-144,775	43,828	0,085	0,056
-143,760	-11,255	0,058	0,027
-142,745	800,000	-0,040	0,097
-141,731	-89,732	0,055	-0,012
-140,716	-132,805	-0,043	0,004
-139,702	-100,441	0,157	0,028
-138,687	-87,621	-0,097	0,021
-137,672	175,578	-0,065	-0,068
-136,658	-147,574	-0,034	0,002
-135,643	-88,535	-0,170	-0,036
-134,629	101,172	0,049	-0,041
-133,614	93,560	0,126	0,102
-132,599	53,028	0,092	0,063
-131,585	289,448	-0,042	0,056
-130,570	-77,726	0,125	0,031
-129,556	-119,202	-0,118	0,015
-128,541	-200,000	0,014	0,082
-127,526	-83,595	0,154	-0,035
-126,512	-200,000	-0,009	-0,122
-125,497	-157,671	-0,074	-0,003
-124,483	-9,363	0,103	0,049
-123,468	-200,000	0,005	0,023
-122,453	-200,000	-0,008	-0,095
-121,439	-200,000	0,008	-0,032
-120,424	-200,000	-0,006	-0,022
-119,410	800,000	0,041	0,088
-118,395	-71,453	0,082	0,022
-117,380	203,087	0,055	-0,061
-116,366	-200,000	-0,004	0,091
-115,351	-178,678	-0,228	-0,004
-114,337	-86,449	-0,068	-0,015
-113,322	-70,039	-0,093	-0,025
-112,307	-200,000	0,011	0,049
-111,293	-100,614	-0,065	0,011
-110,278	-48,148	0,075	-0,026
-109,264	77,906	0,038	-0,029
-108,249	523,547	-0,068	-0,116
-107,234	231,240	-0,057	-0,067
-106,220	-18,383	0,095	0,043
-105,205	170,345	0,042	0,043
-104,191	176,562	-0,017	-0,017
-103,176	-28,655	-0,077	-0,032
-102,162	310,980	-0,009	-0,012
-101,147	84,957	-0,084	0,066
-100,132	-200,000	0,006	-0,021
-99,118	-200,000	-0,033	-0,111
-98,103	127,337	-0,009	-0,008
-97,089	-130,505	0,063	-0,006
-96,074	-7,187	-0,062	0,030
-95,059	-200,000	-0,004	0,080
-94,045	800,000	-0,024	0,057
-93,030	-153,384	-0,143	0,007
-92,016	-161,036	0,062	-0,002
-91,001	263,542	0,021	0,027
-89,986	-200,000	0,016	0,077
-88,972	-67,746	0,095	0,026
-87,957	-80,772	0,083	0,020
-86,943	-31,000	0,073	-0,030
-85,928	105,610	-0,087	0,074
-84,913	-185,431	0,070	-0,001
-83,899	120,593	0,021	-0,019
-82,884	-44,453	-0,060	0,021
-81,870	-200,000	-0,001	0,105
-80,855	309,878	0,089	-0,120
-79,840	607,019	0,031	-0,055
-78,826	-180,596	-0,097	-0,001
-77,811	-18,846	0,072	-0,032
-76,797	560,578	0,029	-0,050
-75,782	-39,060	0,124	-0,047
-74,767	-200,000	-0,013	-0,061
-73,753	97,229	-0,044	-0,036
-72,738	-108,753	-0,077	0,012
-71,724	564,770	-0,033	-0,058
-70,709	-24,026	0,083	-0,036
-69,694	347,148	0,031	0,044
-68,680	800,000	0,019	0,057
-67,665	-200,000	-0,011	0,062
-66,651	194,802	0,125	-0,136
-65,636	-200,000	-0,010	-0,052
-64,622	-90,564	0,065	0,013
-63,607	-82,195	-0,113	-0,026
-62,592	-200,000	0,001	0,005
-61,578	-200,000	-0,040	0,176
-60,563	360,679	0,091	-0,131
-59,549	-200,000	-0,025	0,144
-58,534	84,169	-2,672	-2,095
-57,519	30,569	0,382	-0,234
-56,505	-200,000	-1,684	-5,402
-55,490	467,438	1,272	2,054
-54,476	800,000	5,214	11,201
-53,461	-200,000	22,162	347,666
-52,446	800,000	760,484	2293,791
-51,432	512,746	1645,290	2762,607
-50,417	96,969	1608,325	1322,952
-49,403	64,843	1265,278	915,514
-48,388	22,898	1017,207	597,025
-47,373	19,449	984,453	566,409
-46,359	12,830	971,593	537,343
-45,344	8,582	968,227	521,551
-44,330	9,009	966,335	521,911
-43,315	8,009	964,586	517,675
-42,300	7,956	963,615	516,962
-41,286	8,012	962,572	516,563
-40,271	7,962	961,471	515,789
-39,257	7,939	960,581	515,218
-38,242	7,922	959,719	514,678
-37,227	7,949	958,922	514,318
-36,213	7,955	957,967	513,805
-35,198	7,932	957,161	513,277
-34,184	7,933	956,629	512,975
-33,169	7,949	955,387	512,340
-32,154	7,966	954,441	511,869
-31,140	7,987	953,702	511,521
-30,125	7,982	952,929	511,069
-29,111	8,004	952,109	510,678
-28,096	8,048	951,436	510,441
-27,082	7,992	950,811	509,906
-26,067	7,884	950,140	509,178
-25,052	7,899	949,305	508,757
-24,038	7,942	948,551	508,471
-23,023	7,889	947,994	507,983
-22,009	8,026	947,340	508,050
-20,994	7,969	946,841	507,582
-19,979	7,964	945,957	507,069
-18,965	7,886	945,550	506,582
-17,950	7,952	944,891	506,419
-16,936	7,879	944,200	505,796
-15,921	7,886	943,513	505,431
-14,906	7,881	942,680	504,949
-13,892	7,806	942,236	504,451
-12,877	7,849	941,546	504,200
-11,863	7,788	941,008	503,697
-10,848	7,781	940,555	503,412
-9,833	7,934	939,908	503,531
-8,819	7,870	939,348	503,010
-7,804	7,798	938,569	502,344
-6,790	7,800	938,191	502,128
-5,775	7,818	937,570	501,831
-4,760	7,854	936,936	501,587
-3,746	7,856	936,312	501,238
-2,731	7,768	935,508	500,511
-1,717	7,629	935,089	499,827
-0,702	7,639	934,408	499,474
0,313	7,454	933,877	499,359
1,327	10,970	931,291	509,015
2,342	19,601	779,475	448,648
3,356	14,664	447,706	250,239
4,371	-11,777	312,632	146,607
5,386	-15,238	294,934	134,797
6,400	-17,372	288,713	129,828
7,415	-17,724	286,367	128,415
8,429	-18,182	284,364	127,059
9,444	-18,407	283,431	126,412
10,459	-18,373	282,818	126,161
11,473	-18,304	282,298	125,985
12,488	-18,282	281,755	125,752
13,502	-18,268	281,313	125,557
14,517	-18,226	280,801	125,358
15,531	-18,271	280,447	125,145
16,546	-18,233	280,134	125,031
17,561	-18,194	279,476	124,763
18,575	-18,101	279,243	124,737
19,590	-18,130	278,928	124,558
20,604	-18,063	278,632	124,479
21,619	-18,243	278,290	124,143
22,634	-18,253	278,043	124,012
23,648	-18,026	277,585	124,012
24,663	-18,098	277,410	123,855
25,677	-18,221	277,178	123,623
26,692	-18,120	276,854	123,564
27,707	-18,153	276,534	123,379
28,721	-18,163	276,219	123,218
29,736	-18,023	275,913	123,203
30,750	-18,076	275,727	123,058
31,765	-18,034	275,421	122,950
32,780	-18,122	275,199	122,758
33,794	-18,105	275,021	122,683
34,809	-18,031	274,637	122,570
35,823	-18,123	274,340	122,341
36,838	-18,241	274,281	122,193
37,853	-18,029	274,032	122,270
38,867	-18,114	273,645	122,006
39,882	-18,198	273,623	121,907
40,896	-17,995	273,144	121,872
41,911	-18,307	273,135	121,566
42,926	-18,042	272,738	121,625
43,940	-17,979	272,374	121,511
44,955	-18,130	272,165	121,267
45,969	-18,134	272,003	121,180
46,984	-18,146	271,905	121,115
47,999	-18,052	271,689	121,094
49,013	-17,848	271,532	121,203
50,028	-18,044	271,325	120,918
51,042	-17,859	270,960	120,916
52,057	-18,073	270,770	120,622
53,071	-17,692	270,421	120,808
54,086	-17,904	270,292	120,544
55,101	-17,884	270,136	120,483
56,115	-18,154	269,942	120,136
57,130	-18,157	269,486	119,920
58,144	-18,276	269,355	119,741
59,159	-18,193	268,998	119,648
60,174	-18,012	268,696	119,669
61,188	-18,037	268,548	119,569
62,203	-18,074	268,460	119,486
63,217	-18,172	268,230	119,283
64,232	-18,090	267,921	119,210
65,247	-18,158	267,635	119,011
66,261	-18,089	267,409	118,962
67,276	-18,032	267,293	118,951
68,290	-18,146	266,966	118,692
69,305	-17,913	266,833	118,834
70,320	-17,752	266,630	118,880
71,334	-17,860	266,345	118,644
72,349	-18,094	266,031	118,281
73,363	-17,953	265,810	118,300
74,378	-18,100	265,669	118,094
75,393	-18,040	265,420	118,027
76,407	-18,037	265,131	117,890
77,422	-17,901	265,038	117,961
78,436	-17,952	264,705	117,756
79,451	-17,976	264,525	117,644
80,466	-18,043	264,195	117,427
81,480	-17,964	263,966	117,385
82,495	-18,091	263,922	117,241
83,509	-17,968	263,652	117,222
84,524	-17,898	263,353	117,141
85,539	-17,866	263,197	117,090
86,553	-17,745	262,945	117,076
87,568	-17,941	262,848	116,847
88,582	-18,012	262,647	116,683
89,597	-17,954	262,487	116,653
90,611	-18,038	262,135	116,412
91,626	-17,840	261,948	116,495
92,641	-17,856	261,751	116,383
93,655	-18,029	261,642	116,170
94,670	-18,023	261,313	116,018
95,684	-18,047	261,214	115,943
96,699	-17,998	260,795	115,790
97,714	-17,993	260,811	115,791
98,728	-17,885	260,542	115,758
99,743	-18,065	260,491	115,565
100,757	-17,758	260,104	115,655
101,772	-17,811	259,912	115,512
102,787	-18,193	259,754	115,094
103,801	-18,190	259,468	114,959
104,816	-17,981	259,200	115,015
105,830	-18,012	259,301	115,022
106,845	-18,135	259,003	114,771
107,860	-17,970	258,631	114,742
108,874	-18,029	258,404	114,578
109,889	-17,949	258,280	114,584
110,903	-17,984	257,942	114,393
111,918	-18,066	257,792	114,244
112,933	-17,964	257,724	114,293
113,947	-17,952	257,589	114,234
114,962	-17,926	257,271	114,106
115,976	-18,078	257,079	113,877
116,991	-18,035	256,985	113,863
118,006	-17,956	256,714	113,802
119,020	-17,935	256,500	113,715
120,035	-18,009	256,540	113,658
121,049	-17,876	256,222	113,623
122,064	-17,988	255,917	113,380
123,079	-18,149	255,719	113,142
124,093	-17,943	255,537	113,230
125,108	-17,952	255,454	113,176
126,122	-17,902	255,268	113,127
127,137	-17,614	254,933	113,217
128,151	-17,873	254,830	112,938
129,166	-17,732	254,714	112,998
130,181	-17,749	254,331	112,803
131,195	-17,836	254,146	112,636
132,210	-17,959	254,090	112,495
133,224	-17,902	253,657	112,343
134,239	-17,797	253,576	112,387
135,254	-17,752	253,218	112,257
136,268	-17,954	253,121	112,031
137,283	-18,096	253,101	111,890
138,297	-17,787	252,785	112,005
139,312	-17,919	252,504	111,757
140,327	-18,037	252,432	111,615
141,341	-17,742	252,086	111,703
142,356	-18,089	252,051	111,381
143,370	-18,193	251,790	111,168
144,385	-17,945	251,697	111,328
145,400	-18,028	251,405	111,118
146,414	-17,837	251,114	111,142
147,429	-17,992	251,189	111,034
148,443	-17,900	250,893	110,971
149,458	-17,840	250,671	110,914
150,473	-17,819	250,608	110,894
151,487	-17,804	250,283	110,753
152,502	-17,851	249,989	110,573
153,516	-18,043	249,886	110,356
154,531	-17,898	249,775	110,420
155,546	-17,892	249,572	110,325
156,560	-17,853	249,305	110,229
157,575	-17,911	249,276	110,158
158,589	-17,797	248,950	110,100
159,604	-17,963	248,771	109,871
160,619	-17,919	248,615	109,830
161,633	-17,973	248,454	109,704
162,648	-17,945	248,346	109,670
163,662	-17,925	248,297	109,655
164,677	-17,844	248,095	109,624
165,692	-17,694	247,751	109,588
166,706	-17,814	247,640	109,428
167,721	-17,922	247,429	109,235
168,735	-17,966	247,273	109,120
169,750	-17,862	247,054	109,101
170,764	-17,978	246,994	108,967
171,779	-17,834	246,696	108,947
172,794	-17,824	246,638	108,919
173,808	-17,905	246,442	108,756
174,823	-17,878	246,162	108,645
175,837	-17,664	246,004	108,743
176,852	-17,841	245,826	108,508
177,867	-17,889	245,728	108,415
178,881	-17,863	245,476	108,316
179,896	-17,934	245,400	108,214
180,910	-17,681	245,172	108,313
181,925	-17,983	245,104	108,023
182,940	-17,873	244,859	107,996
183,954	-17,702	244,633	108,029
184,969	-17,843	244,630	107,901
185,983	-17,946	244,371	107,692
186,998	-17,784	244,215	107,747
188,013	-17,931	243,960	107,505
189,027	-17,645	243,715	107,622
190,042	-17,875	243,477	107,319
191,056	-17,682	243,446	107,454
192,071	-17,767	243,232	107,280
193,086	-17,848	243,071	107,133
194,100	-17,789	242,822	107,062
195,115	-17,712	242,605	107,020
196,129	-17,889	242,551	106,841
197,144	-17,903	242,292	106,707
198,159	-17,837	242,085	106,659
199,173	-17,922	242,098	106,587
200,188	-17,846	241,742	106,482
201,202	-17,790	241,786	106,538
202,217	-17,734	241,518	106,456
203,232	-17,652	241,231	106,386
204,246	-17,692	241,097	106,285
205,261	-17,921	241,012	106,053
206,275	-16,616	241,387	107,270
207,290	-11,511	243,145	112,222
208,304	-5,552	245,092	118,020
209,319	-3,275	245,573	120,117
210,334	-2,256	245,489	120,903
211,348	-1,795	245,698	121,375
212,363	-1,379	245,750	121,732
213,377	-0,870	245,773	122,151
214,392	-0,001	245,915	122,926
215,407	0,345	246,030	123,257
216,421	0,469	245,729	123,198
217,436	0,324	245,633	123,019
218,450	0,418	245,434	122,985
219,465	0,233	245,442	122,827
220,480	0,525	245,128	122,898
221,494	0,489	244,913	122,750
222,509	-0,026	244,819	122,271
223,523	0,359	244,508	122,419
224,538	0,174	244,281	122,143
225,553	0,113	244,079	121,981
226,567	0,056	243,946	121,858
227,582	0,031	243,829	121,768
228,596	0,059	243,575	121,653
229,611	0,277	243,371	121,718
230,626	0,066	243,293	121,496
231,640	0,136	243,169	121,480
232,655	0,216	242,917	121,408
233,669	0,135	242,906	121,327
234,684	0,215	242,585	121,220
235,699	0,165	242,648	121,200
236,713	-0,074	242,473	120,908
237,728	0,071	242,213	120,886
238,742	0,254	242,012	120,923
239,757	0,081	241,883	120,708
240,772	0,085	241,850	120,683
241,786	0,046	241,561	120,497
242,801	0,109	241,451	120,483
243,815	0,182	241,328	120,469
244,830	-0,039	241,133	120,183
245,844	0,026	240,957	120,137
246,859	0,124	240,720	120,087
247,874	0,099	240,750	120,071
248,888	0,243	240,364	119,983
249,903	0,078	240,374	119,845
250,917	0,088	240,313	119,812
251,932	0,216	240,020	119,758
252,947	0,087	239,853	119,561
253,961	0,087	239,694	119,470
254,976	-0,110	239,600	119,255
255,990	0,013	239,507	119,297
257,005	-0,029	239,250	119,124
258,020	0,249	239,164	119,293
259,034	0,111	239,041	119,111
260,049	0,174	238,767	119,014
261,063	0,025	238,570	118,786
262,078	0,094	238,482	118,787
263,093	0,041	238,268	118,628
264,107	-0,027	238,156	118,508
265,122	-0,104	238,088	118,402
266,136	0,168	237,719	118,423
267,151	-0,027	237,913	118,355
268,166	0,113	237,527	118,264
269,180	-0,040	237,429	118,083
270,195	0,046	237,251	118,052
271,209	0,171	237,058	118,044
272,224	-0,006	236,955	117,843
273,239	0,138	236,803	117,870
274,253	0,223	236,505	117,778
275,268	0,158	236,445	117,686
276,282	0,098	236,213	117,514
277,297	0,021	236,154	117,413
278,312	0,259	236,056	117,540
279,326	0,255	235,882	117,440
280,341	0,031	235,840	117,233
281,355	0,155	235,561	117,181
282,370	0,126	235,512	117,123
283,384	0,240	235,231	117,062
284,399	0,323	235,125	117,064
285,414	0,164	234,914	116,824
286,428	0,380	234,741	116,897
287,443	0,241	234,671	116,743
288,457	0,170	234,584	116,634
289,472	0,123	234,328	116,459
290,487	0,228	234,202	116,468
291,501	0,141	234,088	116,334
292,516	0,252	233,923	116,328
293,530	0,134	233,713	116,121
294,545	0,269	233,541	116,130
295,560	0,218	233,509	116,064
296,574	0,355	233,322	116,067
297,589	0,382	233,168	116,001
298,603	0,702	232,929	116,119
299,618	0,280	232,864	115,750
300,633	0,301	232,719	115,684
301,647	0,220	232,656	115,580
302,662	0,427	232,622	115,712
303,676	0,182	232,399	115,402
304,691	0,326	232,213	115,410
305,706	0,405	232,083	115,396
306,720	0,377	231,808	115,227
307,735	0,400	231,760	115,211
308,749	0,461	231,465	115,101
309,764	0,280	231,458	114,949
310,779	0,344	231,344	114,931
311,793	0,367	231,098	114,816
312,808	0,291	230,968	114,683
313,822	0,207	230,906	114,578
314,837	0,372	230,653	114,569
315,852	0,348	230,537	114,482
316,866	0,401	230,379	114,434
317,881	0,482	230,286	114,439
318,895	0,451	230,084	114,305
319,910	0,403	230,065	114,249
320,925	0,608	229,709	114,217
321,939	0,446	229,660	114,060
322,954	0,672	229,469	114,127
323,968	0,573	229,399	114,007
324,983	0,611	229,258	113,955
325,997	0,307	229,146	113,659
327,012	0,433	229,026	113,685
328,027	0,458	228,797	113,580
329,041	0,542	228,801	113,635
330,056	0,595	228,449	113,490
331,070	0,515	228,288	113,340
332,085	0,648	228,137	113,355
333,100	0,570	228,043	113,240
334,114	0,487	227,925	113,108
335,129	0,589	227,681	113,054
336,143	0,643	227,615	113,051
337,158	0,616	227,501	112,964
338,173	0,659	227,333	112,903
339,187	0,724	227,152	112,852
340,202	0,538	226,950	112,602
341,216	0,479	226,901	112,523
342,231	0,637	226,736	112,550
343,246	0,624	226,664	112,495
344,260	0,739	226,469	112,474
345,275	0,741	226,444	112,453
346,289	0,496	226,230	112,153
347,304	0,786	226,041	112,267
348,319	0,639	225,930	112,092
349,333	0,705	225,831	112,081
350,348	0,654	225,611	111,924
351,362	0,451	225,649	111,782
352,377	0,821	225,316	111,883
353,392	0,875	225,052	111,781
354,406	0,471	225,151	111,521
355,421	193,445	1311,252	1381,071
356,435	155,002	1443,422	1380,909
