DTS Sentinel unit serial number:	SN410029Multiplexer serial number:	ORYXHardware model number:	OX2-SRSoftware version number:	ORYX F/W v4,00 Oryx Data Collector v3.7.2.0data status	okinstallation	B5 Nyhavnadifferential loss correction	single-endedforward channel	channel 2reverse channel	N/Adate	2023/12/13time	10:22:13forward acquisition time	300,00reverse acquisition time	0,00gamma	499,1914k internal	0,3160k external	0,3160temperature offset calibration	1,0000default loss term (dB/km)	0,3820temperature slope calibration	1,0000multiplexer offset coefficient	1,0000multiplexer slope coefficient	1,0000fibre end	0,00T internal ref (°C)	13,64T ext. ref 1 (°C)	-2,71T ext. ref 2 (°C)	-3,03length (m)	temperature (°C)	Stokes	anti-Stokes-744,400	-107,670	0,111	0,018
-743,385	-140,437	-0,376	-0,028
-742,371	67,994	0,137	0,103
-741,356	-91,620	-0,341	0,071
-740,342	-114,935	0,052	0,007
-739,327	-66,802	-0,224	0,065
-738,312	-75,677	0,079	-0,021
-737,298	-84,986	-0,207	0,047
-736,283	-95,116	0,136	-0,027
-735,269	-88,093	-0,321	-0,070
-734,254	46,287	0,100	0,068
-733,239	-69,404	-0,508	-0,142
-732,225	78,100	0,146	-0,115
-731,210	106,041	-0,072	0,062
-730,196	159,464	-0,100	0,102
-729,181	-200,000	-0,018	0,068
-728,167	-65,616	0,074	-0,022
-727,152	-200,000	-0,011	0,073
-726,137	800,000	-0,011	0,026
-725,123	-154,263	-0,141	0,007
-724,108	-79,365	-0,082	-0,020
-723,094	21,980	-0,005	-0,003
-722,079	611,467	-0,041	-0,076
-721,064	-200,000	0,010	-0,199
-720,050	-151,377	-0,050	0,003
-719,035	-33,090	0,058	0,023
-718,021	-71,140	-0,142	-0,039
-717,006	800,000	-0,015	-0,046
-715,991	800,000	-0,031	-0,100
-714,977	-34,466	-0,060	0,024
-713,962	99,196	-0,107	-0,091
-712,948	-101,996	-0,103	-0,018
-711,933	-46,095	0,118	-0,043
-710,918	-140,151	0,077	0,006
-709,904	266,785	0,073	-0,094
-708,889	-200,000	-0,016	-0,096
-707,875	-200,000	-0,008	-0,143
-706,860	271,253	-0,017	-0,022
-705,845	-200,000	-0,004	-0,147
-704,831	-200,000	-0,002	0,037
-703,816	-200,000	0,001	-0,045
-702,802	213,844	-0,081	-0,094
-701,787	-26,562	0,048	-0,021
-700,772	656,811	-0,083	-0,158
-699,758	800,000	-0,018	-0,048
-698,743	315,055	-0,075	0,105
-697,729	-2,082	-0,042	0,022
-696,714	-200,000	0,017	0,080
-695,699	461,696	0,057	-0,094
-694,685	174,199	-0,111	-0,119
-693,670	50,930	-0,084	-0,059
-692,656	438,468	-0,041	0,066
-691,641	-44,288	0,135	0,049
-690,627	-200,000	0,057	0,255
-689,612	86,062	-0,106	0,086
-688,597	800,000	0,040	-0,111
-687,583	357,194	-0,102	-0,150
-686,568	-106,719	-0,074	-0,012
-685,554	-9,835	0,054	-0,026
-684,539	258,935	-0,071	-0,091
-683,524	-200,000	-0,003	-0,158
-682,510	590,659	-0,040	0,073
-681,495	-73,825	-0,046	0,012
-680,481	217,634	0,095	-0,111
-679,466	-200,000	0,027	-0,183
-678,451	144,585	0,034	0,034
-677,437	800,000	0,035	-0,096
-676,422	-39,703	0,067	0,025
-675,408	-200,000	0,012	0,066
-674,393	561,647	0,039	0,070
-673,378	235,222	-0,079	-0,096
-672,364	800,000	-0,059	-0,157
-671,349	-34,223	-0,027	-0,011
-670,335	-88,659	0,081	-0,018
-669,320	800,000	0,063	0,154
-668,305	-200,000	-0,034	0,211
-667,291	800,000	-0,034	0,091
-666,276	800,000	0,035	-0,108
-665,262	-79,120	0,073	0,018
-664,247	-200,000	-0,006	-0,080
-663,232	36,976	-0,043	0,028
-662,218	-200,000	0,024	0,112
-661,203	-84,552	-0,078	0,018
-660,189	12,660	-0,145	-0,082
-659,174	800,000	-0,043	0,093
-658,159	243,629	-0,104	-0,129
-657,145	800,000	0,039	0,081
-656,130	73,720	0,089	0,068
-655,116	-200,000	-0,002	0,066
-654,101	-200,000	-0,012	0,089
-653,086	137,927	0,102	-0,098
-652,072	800,000	-0,041	-0,084
-651,057	111,013	-0,050	0,044
-650,043	-200,000	0,002	-0,054
-649,028	-200,000	0,005	0,040
-648,014	364,414	0,025	0,036
-646,999	133,220	-0,082	-0,078
-645,984	-84,731	-0,138	0,032
-644,970	-46,990	0,116	-0,041
-643,955	85,664	0,100	-0,080
-642,941	-200,000	-0,016	-0,163
-641,926	161,843	-0,060	-0,061
-640,911	-24,434	0,102	-0,045
-639,897	-159,092	0,123	-0,005
-638,882	-200,000	0,003	-0,062
-637,868	800,000	-0,012	-0,030
-636,853	221,858	-0,075	-0,089
-635,838	310,952	-0,081	-0,111
-634,824	-200,000	-0,005	0,055
-633,809	-160,617	0,094	-0,004
-632,795	60,533	0,182	-0,132
-631,780	800,000	-0,051	0,117
-630,765	66,687	0,084	0,063
-629,751	800,000	-0,045	-0,124
-628,736	-200,000	-0,015	-0,158
-627,722	-172,091	0,087	0,002
-626,707	174,060	-0,126	0,134
-625,692	40,348	0,026	0,017
-624,678	800,000	0,044	0,129
-623,663	-9,388	-0,064	0,031
-622,649	800,000	-0,032	-0,100
-621,634	36,910	-0,093	-0,060
-620,619	-146,950	-0,106	-0,007
-619,605	-115,065	0,106	0,015
-618,590	-62,709	0,075	-0,023
-617,576	3,016	-0,060	0,032
-616,561	-98,349	-0,077	-0,014
-615,546	-200,000	0,001	0,166
-614,532	-35,838	-0,107	-0,042
-613,517	800,000	0,030	0,095
-612,503	57,431	-0,013	-0,009
-611,488	-156,737	0,057	-0,003
-610,474	77,889	0,080	-0,062
-609,459	-37,309	-0,045	0,017
-608,444	-146,905	0,099	-0,006
-607,430	77,347	-0,104	-0,081
-606,415	-30,783	0,141	-0,058
-605,401	75,522	-0,088	-0,068
-604,386	132,723	-0,069	0,065
-603,371	-111,676	0,056	0,008
-602,357	20,682	-0,116	0,069
-601,342	522,273	0,029	-0,049
-600,328	228,048	-0,032	-0,039
-599,313	-200,000	-0,004	-0,236
-598,298	200,657	0,083	-0,094
-597,284	741,625	-0,038	0,074
-596,269	-39,513	-0,090	0,034
-595,255	-45,878	0,164	0,059
-594,240	-154,780	-0,127	-0,006
-593,225	267,975	-0,013	0,016
-592,211	-200,000	-0,045	-0,147
-591,196	423,772	-0,025	-0,040
-590,182	33,096	0,151	0,096
-589,167	81,508	0,005	0,004
-588,152	-164,769	0,027	0,001
-587,138	170,357	-0,151	-0,159
-586,123	-200,000	-0,012	-0,160
-585,109	197,577	-0,105	-0,118
-584,094	50,755	0,051	0,035
-583,079	-70,127	-0,054	0,015
-582,065	193,149	-0,005	-0,006
-581,050	800,000	0,035	0,104
-580,036	-85,773	-0,050	-0,011
-579,021	800,000	0,036	-0,105
-578,006	157,776	0,087	0,088
-576,992	-200,000	0,033	0,127
-575,977	-200,000	-0,016	0,060
-574,963	-200,000	0,002	0,101
-573,948	42,148	-0,141	-0,094
-572,934	-200,000	0,013	-0,102
-571,919	-78,730	-0,131	-0,032
-570,904	232,701	0,016	-0,020
-569,890	-200,000	-0,026	-0,090
-568,875	-200,000	0,001	0,011
-567,861	54,012	0,135	0,095
-566,846	800,000	-0,063	-0,135
-565,831	12,798	-0,102	-0,057
-564,817	-44,401	0,158	0,057
-563,802	-200,000	-0,012	-0,128
-562,788	606,828	-0,033	0,060
-561,773	227,635	0,036	-0,043
-560,758	23,876	0,046	0,028
-559,744	-151,744	0,055	0,003
-558,729	161,166	0,109	0,111
-557,715	-31,184	-0,041	0,017
-556,700	140,659	0,096	-0,093
-555,685	-200,000	-0,027	-0,103
-554,671	800,000	0,052	0,128
-553,656	-30,497	0,082	0,034
-552,642	-200,000	0,011	-0,070
-551,627	17,286	-0,072	0,041
-550,612	-8,283	0,036	-0,018
-549,598	-113,601	-0,066	0,009
-548,583	179,544	-0,067	-0,072
-547,569	97,374	-0,021	-0,017
-546,554	-36,112	0,127	-0,050
-545,539	232,767	-0,063	0,076
-544,525	-200,000	-0,004	-0,040
-543,510	-200,000	-0,008	-0,077
-542,496	-47,909	0,097	-0,034
-541,481	-200,000	-0,028	0,112
-540,466	-150,382	0,112	-0,006
-539,452	-200,000	-0,020	0,104
-538,437	425,565	0,074	0,118
-537,423	-200,000	0,033	0,117
-536,408	800,000	0,012	-0,031
-535,393	17,308	0,095	-0,055
-534,379	349,788	0,059	0,086
-533,364	800,000	0,055	0,155
-532,350	-9,459	-0,051	0,025
-531,335	51,297	-0,029	-0,020
-530,321	-200,000	0,008	-0,051
-529,306	558,781	-0,063	0,111
-528,291	733,133	0,049	-0,095
-527,277	800,000	0,007	0,017
-526,262	-200,000	-0,047	-0,167
-525,248	-200,000	-0,011	0,055
-524,233	800,000	-0,017	0,036
-523,218	19,358	0,092	0,054
-522,204	20,429	-0,150	-0,088
-521,189	299,463	0,067	-0,090
-520,175	28,350	-0,147	-0,090
-519,160	501,778	-0,030	0,051
-518,145	-3,619	0,137	0,069
-517,131	800,000	0,017	-0,036
-516,116	800,000	0,073	0,176
-515,102	-171,015	-0,174	0,004
-514,087	800,000	-0,012	-0,026
-513,072	-56,366	-0,072	-0,023
-512,058	-168,342	-0,084	-0,002
-511,043	-200,000	0,002	-0,133
-510,029	312,817	0,078	0,107
-509,014	117,839	0,138	-0,125
-507,999	-200,000	0,002	-0,053
-506,985	546,136	-0,055	0,097
-505,970	-200,000	-0,001	0,003
-504,956	68,128	0,085	-0,064
-503,941	-28,912	0,079	-0,033
-502,926	2,150	0,099	0,052
-501,912	64,555	-0,021	0,015
-500,897	-18,367	0,057	-0,026
-499,883	407,746	-0,027	0,042
-498,868	800,000	-0,022	-0,053
-497,853	159,205	-0,076	0,078
-496,839	31,699	0,076	-0,048
-495,824	233,405	0,020	-0,024
-494,810	370,200	0,019	-0,029
-493,795	800,000	0,028	-0,072
-492,781	-200,000	-0,014	0,079
-491,766	800,000	0,034	-0,077
-490,751	-25,631	0,042	0,018
-489,737	-200,000	-0,006	0,045
-488,722	800,000	0,051	0,107
-487,708	800,000	-0,020	0,044
-486,693	-90,870	-0,122	-0,025
-485,678	129,163	-0,086	0,080
-484,664	647,117	0,050	-0,094
-483,649	-26,422	-0,125	0,053
-482,635	74,405	0,070	0,054
-481,620	40,198	0,069	-0,045
-480,605	-200,000	0,008	0,086
-479,591	-53,107	-0,075	-0,025
-478,576	800,000	0,064	-0,193
-477,562	-75,848	-0,104	0,027
-476,547	-129,915	0,071	-0,007
-475,532	-22,286	-0,061	-0,027
-474,518	51,962	0,041	0,028
-473,503	-67,702	0,142	0,040
-472,489	-133,517	-0,136	-0,012
-471,474	21,817	0,145	0,086
-470,459	31,568	0,081	-0,051
-469,445	-200,000	-0,002	0,035
-468,430	508,396	-0,033	0,057
-467,416	-141,744	0,110	-0,008
-466,401	-60,404	-0,131	-0,040
-465,386	-200,000	-0,004	0,065
-464,372	-118,024	-0,112	0,014
-463,357	-144,778	-0,167	0,011
-462,343	87,833	-0,035	-0,028
-461,328	-200,000	-0,012	0,082
-460,313	-182,715	-0,043	0,001
-459,299	-33,071	0,064	-0,026
-458,284	-130,849	-0,057	-0,005
-457,270	18,181	0,046	-0,027
-456,255	800,000	-0,023	-0,063
-455,241	-200,000	0,003	-0,228
-454,226	-124,286	0,128	-0,014
-453,211	211,719	0,031	-0,035
-452,197	-200,000	0,017	0,076
-451,182	15,151	-0,124	0,071
-450,168	103,621	0,057	0,049
-449,153	800,000	-0,030	-0,074
-448,138	-200,000	0,002	0,023
-447,124	681,559	-0,024	0,046
-446,109	800,000	0,088	0,193
-445,095	66,239	-0,127	0,094
-444,080	219,094	0,196	0,228
-443,065	-200,000	-0,006	0,032
-442,051	800,000	-0,033	0,068
-441,036	318,109	-0,094	-0,130
-440,022	45,158	-0,135	0,090
-439,007	220,876	-0,029	0,034
-437,992	323,352	-0,058	-0,080
-436,978	-90,102	0,154	0,032
-435,963	-200,000	-0,009	-0,046
-434,949	-117,202	0,055	-0,007
-433,934	-111,913	-0,114	0,017
-432,919	8,560	0,063	0,034
-431,905	223,146	-0,017	0,020
-430,890	-50,946	0,158	0,054
-429,876	61,827	0,133	0,096
-428,861	-200,000	0,005	-0,044
-427,846	800,000	-0,014	0,036
-426,832	273,111	-0,050	-0,065
-425,817	3,582	0,089	0,047
-424,803	-200,000	0,017	0,107
-423,788	-200,000	-0,011	0,154
-422,773	-89,469	0,117	-0,025
-421,759	-200,000	-0,007	0,035
-420,744	113,650	0,027	-0,024
-419,730	52,190	0,088	-0,061
-418,715	-7,408	-0,091	0,045
-417,701	-60,173	0,050	-0,015
-416,686	403,974	0,060	0,092
-415,671	771,056	0,065	0,130
-414,657	800,000	-0,029	0,081
-413,642	-200,000	-0,001	0,071
-412,628	19,670	0,094	-0,055
-411,613	2,203	-0,009	-0,005
-410,598	-200,000	0,030	-0,158
-409,584	-200,000	0,029	0,095
-408,569	-200,000	-0,000	0,146
-407,555	440,919	0,073	0,116
-406,540	70,008	0,068	0,051
-405,525	-200,000	0,005	0,090
-404,511	-200,000	-0,014	-0,088
-403,496	-179,810	0,065	0,001
-402,482	-130,772	-0,120	-0,012
-401,467	-118,936	0,100	0,013
-400,452	6,489	-0,048	0,026
-399,438	193,767	0,032	0,035
-398,423	-200,000	0,013	-0,065
-397,409	66,083	-0,147	0,108
-396,394	-200,000	0,026	0,098
-395,379	152,897	0,027	-0,027
-394,365	390,588	-0,052	0,079
-393,350	-12,729	-0,085	0,040
-392,336	-113,759	0,173	0,024
-391,321	190,595	-0,056	-0,061
-390,306	3,181	-0,127	-0,067
-389,292	141,358	0,058	-0,056
-388,277	-49,009	0,133	0,046
-387,263	32,471	-0,072	-0,045
-386,248	66,128	0,037	0,027
-385,233	-107,039	0,082	0,013
-384,219	0,169	-0,036	-0,019
-383,204	-64,739	-0,104	-0,030
-382,190	497,742	-0,103	-0,174
-381,175	-177,795	0,094	-0,002
-380,160	545,823	-0,010	0,018
-379,146	-200,000	-0,001	-0,013
-378,131	-46,615	-0,060	-0,021
-377,117	-25,214	-0,082	-0,035
-376,102	-19,262	0,036	-0,016
-375,088	-69,203	-0,181	0,050
-374,073	63,405	0,057	-0,041
-373,058	349,253	0,036	0,052
-372,044	359,009	0,072	0,105
-371,029	-34,876	0,121	0,048
-370,015	138,107	0,053	0,051
-369,000	276,995	0,082	-0,106
-367,985	485,455	-0,045	-0,075
-366,971	-200,000	0,006	-0,027
-365,956	-200,000	-0,025	0,142
-364,942	182,334	-0,060	0,064
-363,927	290,039	-0,110	0,145
-362,912	-79,029	-0,149	-0,037
-361,898	-200,000	-0,016	0,051
-360,883	1,051	-0,063	-0,033
-359,869	-200,000	-0,003	0,022
-358,854	-200,000	0,000	-0,005
-357,839	702,801	-0,018	0,034
-356,825	739,705	0,077	0,150
-355,810	-16,071	-0,065	0,030
-354,796	585,117	-0,063	-0,113
-353,781	44,047	-0,061	0,041
-352,766	-200,000	-0,024	-0,085
-351,752	-132,669	-0,156	-0,014
-350,737	-3,716	0,143	0,072
-349,723	-62,466	0,053	-0,016
-348,708	657,116	-0,071	-0,133
-347,693	-4,375	0,033	0,016
-346,679	277,078	0,018	0,024
-345,664	-200,000	-0,007	0,096
-344,650	377,656	0,045	0,066
-343,635	-200,000	-0,001	-0,034
-342,620	121,238	-0,130	-0,118
-341,606	-200,000	-0,009	0,063
-340,591	125,330	-0,063	0,057
-339,577	34,032	-0,133	-0,084
-338,562	-148,387	0,019	0,001
-337,548	263,245	-0,111	-0,141
-336,533	19,428	0,089	-0,052
-335,518	-86,423	-0,019	-0,004
-334,504	-200,000	0,040	0,144
-333,489	-68,961	0,084	-0,023
-332,475	208,322	-0,112	0,128
-331,460	-200,000	0,013	-0,080
-330,445	179,367	0,038	-0,040
-329,431	800,000	0,042	-0,090
-328,416	-35,411	0,127	0,050
-327,402	-158,166	0,048	-0,002
-326,387	-34,919	-0,024	-0,010
-325,372	-180,525	0,099	-0,001
-324,358	130,061	-0,019	0,017
-323,343	26,064	0,020	-0,012
-322,329	-72,187	0,141	0,038
-321,314	60,748	0,090	-0,064
-320,299	800,000	0,008	0,026
-319,285	277,884	-0,014	0,019
-318,270	262,938	-0,017	-0,022
-317,256	800,000	0,046	0,098
-316,241	800,000	0,056	-0,144
-315,226	-200,000	0,015	-0,183
-314,212	606,160	0,061	0,111
-313,197	-55,960	-0,135	-0,043
-312,183	-54,361	0,079	-0,026
-311,168	-113,026	0,043	-0,006
-310,153	-200,000	0,007	-0,105
-309,139	-72,054	-0,055	-0,015
-308,124	-90,901	-0,092	-0,019
-307,110	47,572	0,063	0,042
-306,095	-96,031	-0,086	-0,017
-305,080	36,993	-0,096	0,061
-304,066	237,792	-0,019	-0,022
-303,051	-124,321	-0,115	-0,013
-302,037	-166,027	-0,061	0,002
-301,022	-47,679	0,175	0,061
-300,008	800,000	-0,044	0,097
-298,993	-200,000	0,028	0,096
-297,978	-200,000	-0,001	-0,046
-296,964	173,046	-0,075	-0,078
-295,949	-124,688	-0,112	0,012
-294,935	79,926	-0,070	-0,054
-293,920	-200,000	-0,004	0,045
-292,905	41,335	0,135	0,089
-291,891	390,448	-0,072	0,108
-290,876	3,971	-0,030	0,016
-289,862	800,000	-0,027	-0,080
-288,847	-145,632	-0,079	-0,005
-287,832	-77,384	-0,125	-0,031
-286,818	186,444	-0,062	0,067
-285,803	-200,000	0,020	0,098
-284,789	8,942	-0,057	-0,031
-283,774	-67,753	-0,103	-0,029
-282,759	760,372	0,059	0,116
-281,745	188,470	-0,122	0,133
-280,730	105,730	-0,248	-0,212
-279,716	-200,000	0,008	-0,039
-278,701	-47,669	0,031	0,011
-277,686	13,466	0,053	-0,030
-276,672	44,019	0,065	0,043
-275,657	163,251	-0,057	-0,058
-274,643	164,451	0,107	0,109
-273,628	-200,000	0,028	-0,103
-272,613	130,636	-0,006	0,006
-271,599	-200,000	-0,003	0,157
-270,584	502,444	0,100	0,169
-269,570	800,000	-0,033	0,082
-268,555	-184,871	-0,103	0,001
-267,540	800,000	-0,001	-0,003
-266,526	-55,240	-0,096	-0,031
-265,511	3,149	0,067	0,035
-264,497	-32,658	-0,100	-0,040
-263,482	203,330	0,077	0,087
-262,467	-132,263	0,080	0,007
-261,453	800,000	0,053	0,114
-260,438	155,029	0,080	-0,080
-259,424	0,183	-0,089	-0,046
-258,409	-88,236	0,068	-0,015
-257,395	800,000	-0,016	0,045
-256,380	-200,000	-0,001	0,096
-255,365	-200,000	0,010	0,142
-254,351	-133,728	-0,135	-0,012
-253,336	-25,878	0,032	0,014
-252,322	179,766	0,074	-0,079
-251,307	-57,322	-0,123	-0,039
-250,292	800,000	0,025	0,054
-249,278	800,000	0,047	-0,128
-248,263	800,000	0,006	-0,019
-247,249	-91,400	0,070	-0,014
-246,234	-200,000	-0,031	-0,147
-245,219	800,000	0,068	-0,140
-244,205	-109,492	-0,128	-0,019
-243,190	376,599	-0,020	0,030
-242,176	-145,271	0,213	0,014
-241,161	-200,000	-0,006	0,055
-240,146	154,544	-0,034	-0,034
-239,132	-168,566	-0,093	0,003
-238,117	-84,854	-0,098	0,022
-237,103	-47,910	0,023	-0,008
-236,088	-200,000	0,018	0,105
-235,073	-19,045	0,122	0,054
-234,059	-4,200	0,112	-0,056
-233,044	-200,000	-0,009	-0,044
-232,030	-152,940	0,059	-0,003
-231,015	-43,273	-0,109	0,039
-230,000	-113,702	0,067	-0,009
-228,986	309,969	-0,054	0,074
-227,971	134,283	0,038	0,036
-226,957	800,000	0,018	-0,042
-225,942	481,994	0,024	-0,040
-224,927	-105,160	-0,061	-0,010
-223,913	-111,832	-0,057	0,008
-222,898	321,713	0,049	-0,067
-221,884	157,059	-0,009	0,009
-220,869	800,000	0,021	0,054
-219,855	-57,591	-0,097	-0,030
-218,840	-200,000	-0,005	-0,060
-217,825	406,267	0,063	-0,096
-216,811	-200,000	0,018	-0,122
-215,796	149,699	-0,076	0,074
-214,782	-46,034	0,154	-0,054
-213,767	-91,559	-0,130	0,027
-212,752	-36,302	-0,057	-0,022
-211,738	-45,715	0,109	-0,039
-210,723	733,492	0,039	0,075
-209,709	78,231	-0,025	-0,020
-208,694	47,434	-0,064	-0,043
-207,679	-200,000	-0,026	0,095
-206,665	-57,369	0,142	-0,045
-205,650	-69,682	0,033	0,009
-204,636	-200,000	0,034	0,000
-203,621	-200,000	-0,005	-0,042
-202,606	-200,000	-0,001	-0,111
-201,592	324,503	-0,013	0,018
-200,577	800,000	-0,017	-0,051
-199,563	170,156	-0,016	0,017
-198,548	203,883	-0,028	0,031
-197,533	370,257	-0,066	0,097
-196,519	-92,620	0,066	0,013
-195,504	800,000	-0,028	-0,079
-194,490	473,365	-0,034	-0,056
-193,475	-25,135	-0,096	0,041
-192,460	132,775	0,102	-0,095
-191,446	166,788	0,052	0,053
-190,431	62,298	-0,082	-0,059
-189,417	-118,928	0,170	0,021
-188,402	239,774	0,052	-0,063
-187,387	287,195	-0,119	0,156
-186,373	-72,576	0,053	-0,014
-185,358	-200,000	-0,005	0,042
-184,344	-91,992	-0,136	-0,028
-183,329	-31,570	0,082	-0,033
-182,315	-33,998	0,048	0,019
-181,300	-200,000	-0,010	-0,105
-180,285	-200,000	0,023	0,103
-179,271	-200,000	-0,003	-0,071
-178,256	169,809	0,093	-0,096
-177,242	800,000	-0,057	-0,133
-176,227	400,040	0,069	-0,104
-175,212	121,335	0,033	-0,029
-174,198	394,160	0,047	-0,070
-173,183	603,324	-0,034	0,061
-172,169	34,218	-0,066	-0,041
-171,154	-200,000	-0,026	-0,082
-170,139	176,628	-0,063	-0,066
-169,125	-62,493	-0,064	-0,019
-168,110	-200,000	0,017	0,063
-167,096	-51,244	-0,062	-0,021
-166,081	364,851	-0,051	-0,074
-165,066	-200,000	-0,007	0,028
-164,052	-200,000	0,022	-0,104
-163,037	719,871	0,004	-0,009
-162,023	-200,000	-0,006	0,055
-161,008	214,223	-0,026	-0,030
-159,993	-45,394	-0,123	0,044
-158,979	199,886	-0,021	-0,023
-157,964	800,000	-0,064	0,148
-156,950	471,230	0,028	0,045
-155,935	-200,000	-0,013	-0,047
-154,920	375,283	0,017	0,024
-153,906	562,527	0,049	-0,086
-152,891	-51,069	0,098	0,033
-151,877	800,000	-0,052	0,164
-150,862	296,613	0,054	-0,071
-149,847	721,840	-0,088	-0,169
-148,833	545,953	0,025	-0,043
-147,818	189,365	0,024	0,026
-146,804	-119,020	0,079	0,010
-145,789	-61,186	0,047	-0,014
-144,775	-134,115	-0,193	0,017
-143,760	-200,000	-0,011	-0,047
-142,745	800,000	0,051	-0,123
-141,731	111,483	0,123	-0,107
-140,716	221,205	-0,108	-0,124
-139,702	23,790	0,053	0,031
-138,687	800,000	-0,006	0,014
-137,672	173,143	-0,055	-0,057
-136,658	800,000	-0,035	-0,102
-135,643	800,000	-0,065	-0,161
-134,629	800,000	0,019	0,040
-133,614	800,000	0,057	0,119
-132,599	-33,362	-0,029	0,012
-131,585	800,000	0,046	0,096
-130,570	-106,258	-0,119	-0,019
-129,556	-200,000	-0,011	0,153
-128,541	85,541	-0,093	-0,073
-127,526	179,544	-0,036	-0,038
-126,512	332,577	-0,012	-0,017
-125,497	-136,810	0,032	-0,003
-124,483	-200,000	0,078	0,279
-123,468	-51,046	0,073	-0,024
-122,453	285,271	0,055	0,072
-121,439	574,215	-0,088	-0,154
-120,424	800,000	-0,041	-0,084
-119,410	65,985	-0,153	-0,112
-118,395	-25,911	0,092	0,039
-117,380	36,741	0,133	0,084
-116,366	-200,000	-0,004	0,102
-115,351	604,623	0,080	-0,143
-114,337	800,000	-0,040	0,114
-113,322	652,005	0,075	-0,138
-112,307	117,202	0,067	-0,059
-111,293	-97,317	-0,065	-0,012
-110,278	-200,000	0,003	0,014
-109,264	48,867	0,069	0,047
-108,249	94,022	-0,121	0,098
-107,234	-200,000	-0,001	-0,083
-106,220	-200,000	-0,015	0,071
-105,205	-200,000	-0,017	0,088
-104,191	-113,605	0,041	-0,006
-103,176	-200,000	0,013	0,105
-102,162	-146,515	0,045	-0,003
-101,147	505,756	0,066	-0,110
-100,132	-100,683	0,042	0,007
-99,118	156,295	-0,034	0,034
-98,103	-110,011	0,074	0,011
-97,089	379,405	0,023	-0,034
-96,074	-200,000	-0,008	-0,028
-95,059	363,428	-0,096	-0,139
-94,045	24,254	-0,065	-0,038
-93,030	-106,857	-0,035	-0,005
-92,016	800,000	0,038	-0,094
-91,001	800,000	-0,005	-0,015
-89,986	35,381	-0,085	-0,053
-88,972	-114,131	-0,128	0,018
-87,957	36,316	0,105	0,066
-86,943	88,946	0,185	0,147
-85,928	486,476	-0,019	-0,031
-84,913	-26,079	0,073	-0,031
-83,899	-200,000	-0,003	-0,030
-82,884	-22,203	-0,082	0,036
-81,870	800,000	-0,026	0,076
-80,855	117,990	0,104	-0,092
-79,840	-116,829	-0,073	0,009
-78,826	316,331	-0,039	-0,053
-77,811	-96,621	-0,120	0,022
-76,797	-83,002	0,058	-0,013
-75,782	140,523	-0,031	0,030
-74,767	-200,000	0,013	0,083
-73,753	87,772	0,049	-0,039
-72,738	225,736	-0,038	-0,044
-71,724	800,000	0,011	-0,024
-70,709	13,126	0,107	-0,059
-69,694	-141,960	-0,079	-0,006
-68,680	686,341	-0,014	-0,027
-67,665	192,747	-0,065	0,070
-66,651	-104,321	0,139	0,023
-65,636	-200,000	-0,024	0,095
-64,622	524,002	-0,070	0,119
-63,607	181,862	-0,064	0,067
-62,592	800,000	-0,038	0,103
-61,578	-200,000	0,014	0,096
-60,563	52,294	0,133	0,091
-59,549	-72,096	-0,089	0,024
-58,534	22,404	-2,148	-1,256
-57,519	-200,000	-0,152	-0,968
-56,505	-200,000	-1,363	-5,165
-55,490	39,842	0,757	0,487
-54,476	800,000	5,284	11,942
-53,461	-200,000	18,661	317,846
-52,446	800,000	741,502	2334,211
-51,432	558,030	1657,405	2877,942
-50,417	111,041	1641,481	1417,126
-49,403	75,405	1291,138	975,967
-48,388	30,268	1031,737	630,214
-47,373	19,908	994,404	573,066
-46,359	17,369	981,971	557,516
-45,344	13,999	978,327	544,337
-44,330	14,374	976,452	544,507
-43,315	13,707	974,723	541,330
-42,300	13,691	973,431	540,539
-41,286	13,643	972,779	539,997
-40,271	13,669	971,825	539,532
-39,257	13,647	971,056	539,013
-38,242	13,637	970,128	538,444
-37,227	13,709	969,020	538,040
-36,213	13,585	968,376	537,259
-35,198	13,611	967,432	536,797
-34,184	13,733	966,475	536,643
-33,169	13,595	965,702	535,742
-32,154	13,677	964,781	535,478
-31,140	13,701	963,711	534,939
-30,125	13,678	963,016	534,459
-29,111	13,646	962,115	533,832
-28,096	13,648	961,671	533,573
-27,082	13,729	960,832	533,348
-26,067	13,699	960,184	532,870
-25,052	13,711	959,300	532,396
-24,038	13,687	958,676	531,952
-23,023	13,673	958,149	531,594
-22,009	13,768	957,444	531,488
-20,994	13,729	956,607	530,877
-19,979	13,675	956,179	530,443
-18,965	13,684	955,625	530,143
-17,950	13,662	954,956	529,680
-16,936	13,590	954,486	529,169
-15,921	13,599	953,688	528,735
-14,906	13,560	952,968	528,188
-13,892	13,551	952,256	527,744
-12,877	13,509	951,579	527,212
-11,863	13,571	950,842	526,983
-10,848	13,560	950,322	526,639
-9,833	13,652	949,866	526,660
-8,819	13,618	949,269	526,198
-7,804	13,572	948,452	525,576
-6,790	13,571	947,980	525,294
-5,775	13,592	947,690	525,177
-4,760	13,533	946,918	524,539
-3,746	13,571	946,281	524,289
-2,731	13,415	945,664	523,428
-1,717	13,406	944,944	522,982
-0,702	13,403	944,073	522,469
0,313	13,204	943,617	522,372
1,327	16,560	941,172	531,599
2,342	25,595	795,824	473,506
3,356	22,015	460,215	268,306
4,371	-4,980	317,241	155,985
5,386	-8,702	299,053	143,227
6,400	-10,864	293,131	138,211
7,415	-10,938	290,386	136,830
8,429	-11,278	288,900	135,782
9,444	-11,546	288,090	135,125
10,459	-11,187	287,330	135,110
11,473	-11,390	286,782	134,641
12,488	-11,373	286,261	134,401
13,502	-11,383	285,583	134,060
14,517	-11,473	285,091	133,730
15,531	-11,375	284,692	133,627
16,546	-11,472	284,456	133,410
17,561	-11,536	284,244	133,236
18,575	-11,322	283,661	133,158
19,590	-11,451	283,328	132,865
20,604	-11,377	283,133	132,833
21,619	-11,511	282,529	132,409
22,634	-11,302	282,282	132,483
23,648	-11,531	282,039	132,136
24,663	-11,584	281,698	131,914
25,677	-11,481	281,618	131,964
26,692	-11,404	281,244	131,851
27,707	-11,544	280,982	131,581
28,721	-11,443	280,792	131,578
29,736	-11,585	280,521	131,304
30,750	-11,253	279,854	131,297
31,765	-11,336	279,744	131,154
32,780	-11,212	279,629	131,207
33,794	-11,399	279,343	130,882
34,809	-11,595	279,059	130,551
35,823	-11,291	278,695	130,658
36,838	-11,459	278,657	130,469
37,853	-11,545	278,310	130,213
38,867	-11,580	278,119	130,079
39,882	-11,532	277,789	129,959
40,896	-11,456	277,499	129,884
41,911	-11,550	277,300	129,690
42,926	-11,677	277,235	129,527
43,940	-11,624	276,764	129,346
44,955	-11,513	276,717	129,418
45,969	-11,483	276,367	129,270
46,984	-11,702	276,199	128,974
47,999	-11,830	275,823	128,666
49,013	-12,185	275,777	128,299
50,028	-12,195	275,269	128,043
51,042	-12,153	275,107	127,995
52,057	-12,379	274,792	127,625
53,071	-12,297	274,793	127,691
54,086	-12,104	274,380	127,669
55,101	-11,913	274,152	127,729
56,115	-11,546	274,079	128,027
57,130	-11,600	273,862	127,864
58,144	-11,381	273,815	128,035
59,159	-11,447	273,507	127,819
60,174	-11,198	273,192	127,891
61,188	-11,440	273,050	127,588
62,203	-11,482	272,796	127,419
63,217	-11,377	272,483	127,359
64,232	-11,217	272,255	127,389
65,247	-11,201	272,107	127,323
66,261	-11,308	271,850	127,093
67,276	-11,545	271,614	126,753
68,290	-11,591	271,288	126,546
69,305	-11,775	271,245	126,345
70,320	-11,728	271,034	126,279
71,334	-11,446	270,788	126,413
72,349	-11,299	270,473	126,389
73,363	-11,364	270,402	126,286
74,378	-11,295	270,197	126,242
75,393	-11,318	269,941	126,090
76,407	-11,342	269,811	125,996
77,422	-11,394	269,356	125,725
78,436	-11,349	269,091	125,631
79,451	-11,325	268,971	125,585
80,466	-11,449	268,711	125,340
81,480	-11,682	268,488	125,012
82,495	-11,524	268,370	125,090
83,509	-11,553	268,112	124,932
84,524	-11,615	267,960	124,793
85,539	-11,741	267,566	124,484
86,553	-11,765	267,456	124,400
87,568	-11,567	267,281	124,487
88,582	-11,440	266,930	124,428
89,597	-11,582	266,848	124,251
90,611	-11,397	266,754	124,363
91,626	-11,323	266,468	124,285
92,641	-11,430	266,184	124,046
93,655	-11,269	266,145	124,161
94,670	-11,495	265,882	123,824
95,684	-11,379	265,524	123,750
96,699	-11,538	265,598	123,630
97,714	-11,452	265,474	123,640
98,728	-11,644	265,024	123,246
99,743	-11,761	264,791	123,021
100,757	-11,896	264,720	122,856
101,772	-11,643	264,365	122,907
102,787	-11,524	264,178	122,916
103,801	-11,653	264,235	122,816
104,816	-11,417	263,912	122,866
105,830	-11,224	263,748	122,952
106,845	-11,405	263,619	122,719
107,860	-11,277	263,214	122,634
108,874	-11,357	263,066	122,482
109,889	-11,459	262,878	122,293
110,903	-11,495	262,672	122,154
111,918	-11,439	262,355	122,046
112,933	-11,513	262,277	121,933
113,947	-11,442	262,224	121,960
114,962	-11,344	261,864	121,869
115,976	-11,232	261,621	121,845
116,991	-11,256	261,601	121,803
118,006	-11,425	261,324	121,514
119,020	-11,253	261,078	121,540
120,035	-11,244	261,052	121,525
121,049	-11,319	260,955	121,403
122,064	-11,396	260,589	121,154
123,079	-11,289	260,421	121,160
124,093	-11,310	260,152	121,005
125,108	-11,594	259,844	120,601
126,122	-11,732	259,670	120,388
127,137	-11,627	259,444	120,365
128,151	-11,553	259,349	120,375
129,166	-11,574	259,181	120,268
130,181	-11,531	258,899	120,164
131,195	-11,654	258,753	119,978
132,210	-11,463	258,567	120,048
133,224	-11,463	258,317	119,922
134,239	-11,413	258,414	119,999
135,254	-11,492	258,107	119,777
136,268	-11,445	257,819	119,674
137,283	-11,812	257,497	119,194
138,297	-11,717	257,369	119,206
139,312	-11,840	257,130	118,978
140,327	-11,607	256,963	119,093
141,341	-11,239	256,817	119,335
142,356	-11,353	256,821	119,227
143,370	-11,099	256,534	119,303
144,385	-11,168	256,403	119,171
145,400	-11,144	256,334	119,150
146,414	-11,219	256,041	118,938
147,429	-11,253	255,807	118,790
148,443	-11,435	255,712	118,577
149,458	-11,127	255,415	118,695
150,473	-10,980	255,343	118,777
151,487	-11,301	255,027	118,343
152,502	-11,124	254,859	118,407
153,516	-11,242	254,699	118,221
154,531	-11,176	254,517	118,183
155,546	-11,336	254,408	117,984
156,560	-11,340	254,099	117,827
157,575	-11,423	253,974	117,687
158,589	-11,100	253,661	117,808
159,604	-11,190	253,590	117,688
160,619	-11,196	253,432	117,599
161,633	-11,377	253,108	117,284
162,648	-11,156	253,114	117,464
163,662	-10,937	252,974	117,576
164,677	-11,158	252,723	117,260
165,692	-11,155	252,675	117,230
166,706	-11,012	252,432	117,228
167,721	-11,125	252,291	117,056
168,735	-11,415	252,193	116,754
169,750	-11,157	252,060	116,901
170,764	-11,089	251,775	116,816
171,779	-10,968	251,691	116,870
172,794	-11,194	251,384	116,525
173,808	-11,167	251,278	116,488
174,823	-11,255	250,823	116,193
175,837	-11,879	250,767	115,629
176,852	-11,363	250,722	116,034
177,867	-10,996	250,531	116,246
178,881	-11,247	250,526	116,021
179,896	-11,098	250,218	115,993
180,910	-11,113	249,974	115,857
181,925	-11,113	249,949	115,835
182,940	-11,039	249,794	115,815
183,954	-11,044	249,494	115,662
184,969	-10,996	249,346	115,624
185,983	-11,177	249,180	115,384
186,998	-10,915	248,903	115,465
188,013	-11,128	248,973	115,309
189,027	-11,055	248,728	115,246
190,042	-11,124	248,345	115,000
191,056	-11,200	248,341	114,925
192,071	-10,967	247,980	114,942
193,086	-10,923	247,980	114,969
194,100	-10,981	247,737	114,797
195,115	-11,139	247,538	114,563
196,129	-10,885	247,412	114,706
197,144	-11,178	247,156	114,334
198,159	-11,128	246,871	114,233
199,173	-11,011	246,742	114,260
200,188	-11,336	246,658	113,941
201,202	-11,402	246,340	113,730
202,217	-11,663	246,111	113,398
203,232	-11,717	245,891	113,242
204,246	-11,359	246,053	113,602
205,261	-10,853	245,900	113,940
206,275	-11,256	245,624	113,469
207,290	-6,418	247,631	118,411
208,304	1,371	250,002	126,052
209,319	4,137	250,851	128,783
210,334	4,631	250,841	129,180
211,348	4,847	250,725	129,290
212,363	5,151	250,657	129,496
213,377	5,318	250,500	129,543
214,392	4,936	250,338	129,130
215,407	5,045	249,994	129,031
216,421	5,123	249,875	129,023
217,436	5,043	249,902	128,959
218,450	5,376	249,694	129,117
219,465	5,081	249,416	128,716
220,480	4,801	249,244	128,384
221,494	4,684	249,144	128,225
222,509	4,933	248,881	128,284
223,523	4,984	248,533	128,135
224,538	4,344	248,313	127,481
225,553	4,669	248,192	127,677
226,567	4,674	248,252	127,699
227,582	4,712	248,077	127,629
228,596	4,746	247,803	127,506
229,611	4,507	247,589	127,187
230,626	4,512	247,243	127,002
231,640	4,504	247,077	126,899
232,655	4,398	247,042	126,783
233,669	4,486	246,767	126,702
234,684	4,132	246,580	126,304
235,699	4,588	246,686	126,721
236,713	4,774	246,533	126,784
237,728	4,433	246,324	126,386
238,742	4,399	246,058	126,211
239,757	4,203	245,883	125,950
240,772	4,471	245,734	126,081
241,786	4,674	245,667	126,201
242,801	4,341	245,366	125,764
243,815	4,213	245,325	125,627
244,830	4,539	245,300	125,869
245,844	4,561	244,985	125,713
246,859	4,504	244,837	125,580
247,874	4,350	244,630	125,337
248,888	4,525	244,483	125,394
249,903	4,514	244,388	125,325
250,917	4,536	244,296	125,284
251,932	4,769	244,238	125,432
252,947	4,844	243,962	125,339
253,961	4,287	243,861	124,826
254,976	4,718	243,589	125,024
255,990	4,576	243,528	124,867
257,005	4,368	243,203	124,521
258,020	4,321	243,003	124,369
259,034	4,207	243,054	124,292
260,049	4,606	242,807	124,477
261,063	4,496	242,439	124,189
262,078	4,423	242,358	124,077
263,093	4,687	242,369	124,284
264,107	4,695	242,289	124,238
265,122	4,318	242,040	123,797
266,136	4,266	241,963	123,705
267,151	4,852	241,870	124,116
268,166	4,587	241,441	123,672
269,180	4,365	241,297	123,411
270,195	4,906	241,420	123,895
271,209	5,098	241,369	124,012
272,224	4,444	241,058	123,318
273,239	4,090	240,551	122,766
274,253	4,330	240,553	122,947
275,268	4,359	240,607	122,987
276,282	4,413	240,272	122,847
277,297	4,163	240,249	122,626
278,312	4,306	239,956	122,580
279,326	4,446	239,950	122,676
280,341	4,497	239,782	122,620
281,355	4,594	239,550	122,567
282,370	4,603	239,404	122,489
283,384	4,589	239,233	122,379
284,399	4,539	238,867	122,142
285,414	4,385	238,803	121,976
286,428	4,418	238,798	121,989
287,443	4,389	238,611	121,860
288,457	4,467	238,574	121,892
289,472	4,727	238,409	122,002
290,487	4,490	238,197	121,696
291,501	4,323	238,073	121,489
292,516	4,220	237,696	121,205
293,530	4,188	237,617	121,129
294,545	4,520	237,569	121,355
295,560	4,624	237,458	121,369
296,574	4,272	237,158	120,929
297,589	4,251	237,185	120,915
298,603	4,522	237,113	121,081
299,618	4,807	236,917	121,193
300,633	4,835	236,686	121,086
301,647	4,750	236,722	121,027
302,662	4,997	236,600	121,147
303,676	4,738	236,398	120,830
304,691	4,683	236,197	120,674
305,706	4,858	236,031	120,715
306,720	4,986	235,841	120,706
307,735	4,874	235,666	120,519
308,749	4,441	235,550	120,112
309,764	4,404	235,359	119,975
310,779	4,254	235,085	119,708
311,793	4,142	234,946	119,539
312,808	4,451	234,614	119,600
313,822	3,898	234,521	119,114
314,837	4,022	234,410	119,142
315,852	4,257	234,386	119,301
316,866	4,760	234,471	119,723
317,881	4,834	234,254	119,659
318,895	5,037	233,978	119,664
319,910	4,895	233,964	119,537
320,925	4,700	233,620	119,200
321,939	4,215	233,415	118,712
322,954	4,371	233,451	118,839
323,968	4,643	233,304	118,963
324,983	4,557	233,207	118,836
325,997	4,878	233,080	119,008
327,012	4,764	232,927	118,832
328,027	4,606	232,591	118,528
329,041	4,685	232,712	118,640
330,056	5,195	232,673	119,001
331,070	5,049	232,551	118,817
332,085	5,018	232,238	118,622
333,100	4,786	231,988	118,307
334,114	4,853	231,753	118,228
335,129	4,894	231,730	118,236
336,143	4,779	231,655	118,099
337,158	4,813	231,524	118,048
338,173	4,603	231,190	117,708
339,187	4,564	230,894	117,517
340,202	4,638	230,932	117,582
341,216	4,621	230,836	117,509
342,231	4,570	230,560	117,319
343,246	4,373	230,475	117,116
344,260	4,620	230,415	117,263
345,275	5,019	230,249	117,471
346,289	4,904	230,216	117,356
347,304	4,929	230,084	117,297
348,319	4,975	229,769	117,161
349,333	4,804	229,659	116,965
350,348	4,583	229,487	116,700
351,362	4,589	229,307	116,602
352,377	4,126	229,316	116,248
353,392	4,324	228,972	116,212
354,406	4,319	228,971	116,197
355,421	195,328	1317,558	1392,241
356,435	156,678	1450,144	1392,210
