DTS Sentinel unit serial number:	SN410029Multiplexer serial number:	ORYXHardware model number:	OX2-SRSoftware version number:	ORYX F/W v4,00 Oryx Data Collector v3.7.2.0data status	okinstallation	B5 Nyhavnadifferential loss correction	single-endedforward channel	channel 2reverse channel	N/Adate	2023/12/13time	12:57:13forward acquisition time	300,00reverse acquisition time	0,00gamma	499,1914k internal	0,3161k external	0,3161temperature offset calibration	1,0000default loss term (dB/km)	0,3820temperature slope calibration	1,0000multiplexer offset coefficient	1,0000multiplexer slope coefficient	1,0000fibre end	0,00T internal ref (°C)	14,32T ext. ref 1 (°C)	-1,44T ext. ref 2 (°C)	-1,68length (m)	temperature (°C)	Stokes	anti-Stokes-744,400	-51,547	0,114	-0,039
-743,385	-200,000	-0,178	0,000
-742,371	78,498	0,040	-0,031
-741,356	-102,554	-0,288	-0,050
-740,342	-18,112	0,108	0,050
-739,327	-86,255	-0,312	0,070
-738,312	-200,000	-0,005	0,086
-737,298	-55,987	-0,262	-0,085
-736,283	179,196	0,080	0,086
-735,269	-119,878	-0,387	-0,049
-734,254	-148,828	0,170	-0,010
-733,239	-9,314	-0,547	-0,268
-732,225	-95,053	0,241	0,048
-731,210	-200,000	-0,002	0,127
-730,196	8,734	-0,068	-0,038
-729,181	84,786	-0,152	-0,122
-728,167	517,985	-0,016	0,028
-727,152	306,652	-0,048	-0,066
-726,137	239,546	0,071	-0,087
-725,123	-130,279	-0,140	-0,014
-724,108	138,943	-0,146	-0,141
-723,094	37,715	-0,146	-0,095
-722,079	247,548	-0,126	0,158
-721,064	-41,169	0,077	-0,029
-720,050	-24,647	0,006	0,002
-719,035	300,968	-0,043	0,059
-718,021	-28,796	-0,020	-0,008
-717,006	-1,213	-0,233	-0,121
-715,991	542,979	-0,019	0,034
-714,977	-200,000	-0,005	0,015
-713,962	-5,567	-0,121	0,061
-712,948	800,000	-0,013	-0,031
-711,933	230,556	-0,071	0,086
-710,918	800,000	0,026	-0,057
-709,904	-200,000	0,002	0,063
-708,889	423,160	-0,087	-0,138
-707,875	86,472	-0,095	-0,077
-706,860	800,000	-0,027	-0,067
-705,845	26,678	0,051	-0,031
-704,831	-128,162	0,070	-0,007
-703,816	58,156	0,071	-0,051
-702,802	-129,384	-0,031	-0,003
-701,787	25,437	-0,039	0,024
-700,772	-200,000	-0,014	0,048
-699,758	278,518	-0,025	0,033
-698,743	37,639	0,085	-0,055
-697,729	-200,000	-0,007	-0,032
-696,714	-150,630	-0,011	0,001
-695,699	307,866	0,051	0,070
-694,685	433,154	-0,099	-0,158
-693,670	143,990	-0,077	-0,075
-692,656	-200,000	-0,024	0,123
-691,641	-200,000	-0,024	-0,094
-690,627	35,001	-0,085	-0,055
-689,612	-160,392	0,055	0,002
-688,597	365,524	0,041	-0,061
-687,583	-28,542	-0,104	0,044
-686,568	-200,000	0,009	0,035
-685,554	-87,384	-0,158	0,035
-684,539	30,129	0,091	-0,057
-683,524	-90,693	-0,043	-0,009
-682,510	-200,000	-0,010	-0,125
-681,495	75,408	-0,113	-0,088
-680,481	-82,183	-0,142	-0,034
-679,466	43,034	-0,048	-0,032
-678,451	800,000	-0,029	-0,065
-677,437	-200,000	0,022	0,176
-676,422	31,374	0,057	0,036
-675,408	32,566	-0,007	0,004
-674,393	-200,000	-0,030	-0,116
-673,378	179,758	-0,016	-0,017
-672,364	1,775	-0,096	-0,051
-671,349	-141,949	0,154	0,011
-670,335	-200,000	0,024	-0,129
-669,320	-200,000	0,016	0,113
-668,305	134,265	-0,037	0,035
-667,291	-200,000	0,011	0,040
-666,276	-101,234	-0,148	0,026
-665,262	150,810	-0,136	-0,136
-664,247	-200,000	-0,011	-0,104
-663,232	522,746	0,067	-0,116
-662,218	36,653	-0,123	-0,079
-661,203	433,341	0,057	0,091
-660,189	-153,851	-0,008	0,000
-659,174	104,643	-0,120	-0,104
-658,159	800,000	0,026	0,058
-657,145	300,564	0,091	-0,123
-656,130	51,865	-0,047	-0,033
-655,116	-200,000	-0,020	0,080
-654,101	-200,000	0,011	-0,104
-653,086	-61,169	0,064	0,020
-652,072	-157,786	-0,098	0,004
-651,057	232,037	-0,097	-0,117
-650,043	-43,189	-0,111	-0,041
-649,028	-101,431	0,139	-0,025
-648,014	223,553	-0,017	-0,020
-646,999	-124,529	0,100	0,011
-645,984	93,654	0,068	0,057
-644,970	95,826	0,037	-0,031
-643,955	187,457	-0,052	0,056
-642,941	91,174	-0,141	-0,116
-641,926	-10,326	-0,154	0,074
-640,911	800,000	0,066	0,148
-639,897	-59,030	-0,061	-0,019
-638,882	-12,184	0,055	-0,026
-637,868	-173,460	-0,049	0,001
-636,853	52,130	-0,014	-0,010
-635,838	-158,030	0,068	0,003
-634,824	-52,707	-0,083	0,028
-633,809	455,825	0,033	0,055
-632,795	576,339	0,033	0,060
-631,780	-22,409	0,086	-0,038
-630,765	753,241	0,007	-0,014
-629,751	550,872	-0,070	-0,124
-628,736	-200,000	-0,014	-0,065
-627,722	-151,757	-0,072	-0,004
-626,707	14,468	0,105	0,060
-625,692	-41,668	-0,050	0,019
-624,678	632,350	0,033	0,062
-623,663	564,400	-0,065	-0,117
-622,649	-65,507	-0,019	-0,006
-621,634	-76,979	-0,022	0,006
-620,619	-200,000	-0,012	-0,118
-619,605	-200,000	-0,007	-0,112
-618,590	36,036	0,120	-0,077
-617,576	296,523	-0,039	-0,052
-616,561	-200,000	-0,011	0,175
-615,546	19,092	-0,151	0,089
-614,532	800,000	0,022	-0,055
-613,517	-200,000	-0,019	0,093
-612,503	94,775	-0,060	0,050
-611,488	-200,000	-0,083	0,280
-610,474	67,509	0,113	-0,084
-609,459	17,861	0,021	-0,012
-608,444	95,828	-0,065	-0,054
-607,430	800,000	0,017	-0,046
-606,415	-4,970	-0,064	0,032
-605,401	-0,906	0,071	-0,037
-604,386	-37,305	0,096	0,037
-603,371	73,568	0,043	0,033
-602,357	-200,000	-0,022	-0,087
-601,342	-193,483	-0,121	0,001
-600,328	-70,711	-0,055	-0,015
-599,313	800,000	0,021	-0,063
-598,298	-136,138	-0,099	0,008
-597,284	800,000	0,023	0,047
-596,269	147,465	-0,095	-0,093
-595,255	123,271	0,095	-0,088
-594,240	800,000	0,042	-0,093
-593,225	-17,036	-0,117	-0,054
-592,211	-141,236	0,080	0,006
-591,196	-74,612	0,113	0,030
-590,182	-42,592	-0,118	-0,044
-589,167	-200,000	-0,006	0,033
-588,152	80,067	-0,076	-0,060
-587,138	225,343	-0,036	-0,042
-586,123	-132,586	-0,097	-0,009
-585,109	-70,909	0,036	-0,010
-584,094	153,813	-0,047	0,047
-583,079	-27,047	0,087	0,037
-582,065	496,212	-0,011	0,019
-581,050	800,000	-0,002	-0,004
-580,036	-76,060	0,006	-0,001
-579,021	8,124	0,028	-0,015
-578,006	800,000	0,017	0,039
-576,992	204,325	0,019	0,022
-575,977	-200,000	-0,056	0,000
-574,963	87,615	0,007	-0,006
-573,948	-70,048	0,163	-0,045
-572,934	30,669	-0,031	0,020
-571,919	160,583	-0,126	-0,128
-570,904	91,395	-0,065	0,053
-569,890	-79,574	0,068	-0,017
-568,875	800,000	0,031	0,080
-567,861	800,000	0,043	-0,104
-566,846	503,807	-0,013	-0,023
-565,831	515,967	-0,035	0,059
-564,817	431,941	0,040	-0,064
-563,802	-110,534	-0,067	0,010
-562,788	-157,125	-0,054	0,002
-561,773	-15,062	0,224	-0,105
-560,758	800,000	0,022	0,068
-559,744	-51,942	-0,092	-0,031
-558,729	126,567	-0,052	-0,049
-557,715	64,949	0,053	-0,039
-556,700	-200,000	0,011	-0,189
-555,685	-51,751	-0,075	-0,025
-554,671	343,299	0,069	0,100
-553,656	129,129	0,046	0,043
-552,642	652,017	-0,059	0,111
-551,627	-80,920	0,024	-0,006
-550,612	502,048	0,012	-0,020
-549,598	-200,000	-0,007	-0,042
-548,583	800,000	-0,044	-0,099
-547,569	-200,000	0,045	-0,168
-546,554	-200,000	-0,010	0,091
-545,539	-125,694	0,111	0,012
-544,525	299,941	0,045	0,060
-543,510	-200,000	0,036	0,176
-542,496	-32,291	-0,059	-0,024
-541,481	-132,678	-0,171	-0,016
-540,466	-38,893	-0,040	-0,015
-539,452	-149,195	0,087	-0,005
-538,437	537,302	-0,051	0,089
-537,423	7,022	-0,074	-0,040
-536,408	-86,178	-0,045	0,010
-535,393	-200,000	-0,026	-0,212
-534,379	651,610	0,036	-0,069
-533,364	-200,000	0,037	-0,150
-532,350	89,047	0,113	0,092
-531,335	-200,000	0,008	0,059
-530,321	118,302	0,059	0,053
-529,306	-200,000	-0,006	-0,040
-528,291	174,655	-0,108	0,114
-527,277	451,298	0,059	-0,095
-526,262	276,945	-0,095	-0,124
-525,248	686,837	0,015	0,028
-524,233	-200,000	0,004	0,088
-523,218	-200,000	-0,009	0,052
-522,204	21,373	-0,149	-0,088
-521,189	1,641	-0,062	-0,033
-520,175	522,372	-0,049	-0,084
-519,160	22,377	-0,011	-0,006
-518,145	-200,000	-0,012	-0,066
-517,131	222,155	-0,009	0,011
-516,116	-200,000	0,008	0,080
-515,102	-200,000	0,013	0,068
-514,087	-200,000	0,003	-0,088
-513,072	800,000	0,013	0,043
-512,058	-200,000	-0,005	0,017
-511,043	421,349	0,047	0,074
-510,029	-22,430	0,132	0,058
-509,014	251,512	-0,032	-0,039
-507,999	-200,000	0,002	-0,033
-506,985	-113,990	0,044	0,006
-505,970	443,598	-0,104	0,166
-504,956	301,832	0,019	0,026
-503,941	-78,830	-0,056	-0,014
-502,926	394,019	0,043	0,066
-501,912	397,644	-0,045	0,069
-500,897	-186,655	0,101	-0,001
-499,883	291,507	-0,040	-0,053
-498,868	-200,000	0,010	0,044
-497,853	-200,000	0,017	0,116
-496,839	-90,128	0,080	0,017
-495,824	-54,649	0,128	-0,042
-494,810	-76,480	-0,187	0,048
-493,795	-66,636	0,199	-0,057
-492,781	45,507	-0,013	0,008
-491,766	59,440	-0,050	-0,036
-490,751	-63,067	0,032	-0,009
-489,737	13,321	-0,071	-0,040
-488,722	-200,000	-0,002	0,103
-487,708	-200,000	-0,008	0,030
-486,693	800,000	-0,092	0,230
-485,678	-28,706	0,066	-0,028
-484,664	-76,259	0,040	-0,010
-483,649	-200,000	-0,006	0,041
-482,635	800,000	-0,028	-0,071
-481,620	-118,686	0,079	-0,010
-480,605	800,000	-0,021	0,045
-479,591	-173,324	-0,024	0,001
-478,576	-42,537	0,026	0,010
-477,562	-85,006	-0,165	0,037
-476,547	71,692	-0,027	0,020
-475,532	-175,507	-0,049	0,001
-474,518	195,769	0,075	-0,083
-473,503	9,610	0,079	-0,044
-472,489	800,000	0,036	0,079
-471,474	-200,000	-0,006	0,113
-470,459	-110,159	-0,133	-0,020
-469,445	359,716	-0,011	-0,017
-468,430	281,430	-0,060	-0,079
-467,416	-4,467	-0,077	0,039
-466,401	45,028	0,110	0,074
-465,386	273,637	-0,038	0,049
-464,372	-200,000	0,017	0,069
-463,357	-76,459	0,075	0,019
-462,343	12,096	-0,010	0,006
-461,328	747,031	-0,050	-0,098
-460,313	-19,004	0,036	0,016
-459,299	-131,613	0,099	0,009
-458,284	-40,424	0,133	0,050
-457,270	88,881	0,078	0,063
-456,255	-200,000	-0,002	0,008
-455,241	270,129	-0,022	-0,028
-454,226	-200,000	0,018	-0,163
-453,211	-149,398	-0,089	-0,005
-452,197	-200,000	0,018	0,095
-451,182	71,427	-0,080	0,061
-450,168	800,000	0,051	0,109
-449,153	800,000	0,050	-0,107
-448,138	-88,542	0,119	0,026
-447,124	160,410	-0,073	-0,074
-446,109	197,972	0,017	0,019
-445,095	-200,000	0,025	0,108
-444,080	-38,181	-0,065	-0,025
-443,065	-16,366	0,085	0,039
-442,051	69,086	-0,088	-0,066
-441,036	-38,189	-0,157	0,060
-440,022	-122,801	-0,148	0,017
-439,007	-200,000	0,027	-0,140
-437,992	800,000	-0,070	-0,151
-436,978	-200,000	-0,004	0,098
-435,963	-200,000	0,019	-0,092
-434,949	-200,000	0,013	-0,097
-433,934	800,000	-0,015	-0,045
-432,919	-54,754	0,100	-0,033
-431,905	17,814	0,090	0,052
-430,890	-117,702	0,082	0,011
-429,876	587,231	-0,038	-0,068
-428,861	-143,611	0,072	-0,005
-427,846	126,276	-0,098	0,090
-426,832	194,125	0,105	-0,115
-425,817	127,253	0,082	-0,076
-424,803	-200,000	0,007	0,023
-423,788	-200,000	-0,000	-0,070
-422,773	408,531	0,035	0,053
-421,759	-53,854	0,058	-0,019
-420,744	-66,994	-0,109	0,031
-419,730	-200,000	-0,011	-0,079
-418,715	-3,774	0,040	-0,020
-417,701	-12,298	-0,130	-0,061
-416,686	261,769	-0,029	0,037
-415,671	-154,155	0,144	-0,007
-414,657	751,493	-0,060	0,118
-413,642	147,613	-0,007	0,007
-412,628	-200,000	0,014	-0,069
-411,613	389,217	-0,034	-0,051
-410,598	559,309	-0,035	-0,062
-409,584	800,000	-0,051	-0,119
-408,569	287,979	-0,039	0,051
-407,555	800,000	0,053	0,141
-406,540	136,700	-0,092	0,088
-405,525	-112,886	-0,126	0,018
-404,511	800,000	-0,027	-0,063
-403,496	-0,613	-0,145	0,075
-402,482	-0,562	0,190	-0,098
-401,467	-200,000	0,016	0,110
-400,452	-193,999	0,127	0,001
-399,438	98,605	0,091	-0,076
-398,423	-20,566	0,082	-0,037
-397,409	800,000	0,036	-0,110
-396,394	48,236	0,024	0,016
-395,379	-11,611	0,139	0,066
-394,365	800,000	-0,023	0,068
-393,350	-200,000	-0,034	0,134
-392,336	577,811	0,081	-0,144
-391,321	-200,000	0,000	-0,007
-390,306	17,678	-0,115	0,066
-389,292	188,801	0,063	-0,068
-388,277	30,728	-0,025	-0,015
-387,263	27,176	0,015	-0,009
-386,248	-16,440	0,036	-0,017
-385,233	57,001	0,089	0,063
-384,219	800,000	0,027	-0,083
-383,204	149,496	-0,120	-0,118
-382,190	21,647	-0,070	-0,041
-381,175	130,715	0,040	-0,038
-380,160	-86,220	0,130	-0,029
-379,146	-90,939	0,066	-0,014
-378,131	127,019	-0,037	0,034
-377,117	-172,149	-0,148	-0,003
-376,102	548,192	0,070	0,121
-375,088	545,287	-0,063	0,109
-374,073	492,660	-0,019	-0,031
-373,058	45,742	-0,090	0,060
-372,044	-200,000	-0,005	0,019
-371,029	82,131	0,172	0,136
-370,015	561,555	-0,028	0,049
-369,000	4,184	-0,059	-0,031
-367,985	-200,000	-0,009	-0,148
-366,971	-195,686	-0,014	0,000
-365,956	-90,756	-0,208	-0,043
-364,942	-142,718	0,166	-0,012
-363,927	-200,000	0,018	0,096
-362,912	-200,000	-0,006	0,074
-361,898	800,000	-0,036	0,073
-360,883	-114,785	0,125	-0,017
-359,869	-200,000	0,018	-0,159
-358,854	-58,762	0,119	-0,037
-357,839	-15,387	0,166	0,077
-356,825	552,462	-0,035	0,061
-355,810	273,615	-0,047	-0,061
-354,796	800,000	-0,034	-0,081
-353,781	628,408	-0,038	0,069
-352,766	20,408	-0,109	-0,064
-351,752	508,730	0,044	-0,075
-350,737	800,000	0,013	0,026
-349,723	-200,000	0,001	-0,005
-348,708	366,370	-0,056	-0,082
-347,693	-200,000	-0,005	-0,033
-346,679	800,000	0,004	0,008
-345,664	-51,743	0,138	0,046
-344,650	800,000	0,013	0,028
-343,635	45,513	-0,069	-0,046
-342,620	-116,214	0,156	0,021
-341,606	399,732	0,057	-0,087
-340,591	90,342	-0,127	-0,103
-339,577	109,216	0,067	0,058
-338,562	-66,283	-0,151	-0,043
-337,548	-200,000	0,008	-0,046
-336,533	-90,664	-0,049	0,010
-335,518	10,828	0,094	0,052
-334,504	-200,000	-0,009	0,081
-333,489	800,000	-0,015	-0,035
-332,475	174,721	-0,062	-0,065
-331,460	-200,000	-0,020	-0,078
-330,445	-50,431	-0,079	-0,027
-329,431	-200,000	0,001	-0,041
-328,416	-200,000	0,019	0,094
-327,402	16,760	0,065	0,037
-326,387	-200,000	0,003	0,111
-325,372	-11,790	-0,123	-0,058
-324,358	-200,000	-0,005	0,168
-323,343	-52,462	-0,096	0,032
-322,329	800,000	0,054	-0,140
-321,314	403,017	0,035	-0,054
-320,299	-88,977	0,108	-0,023
-319,285	4,575	-0,068	0,036
-318,270	303,552	0,026	-0,035
-317,256	225,896	-0,090	-0,105
-316,241	-200,000	0,015	-0,056
-315,226	-200,000	-0,013	0,143
-314,212	478,644	-0,058	0,095
-313,197	540,476	0,032	0,056
-312,183	800,000	-0,022	0,059
-311,168	-65,277	-0,133	0,039
-310,153	-200,000	0,006	0,068
-309,139	-200,000	0,005	0,068
-308,124	-57,993	-0,094	0,029
-307,110	-200,000	-0,033	0,144
-306,095	268,267	0,053	0,067
-305,080	-139,957	0,030	0,002
-304,066	313,900	-0,024	0,033
-303,051	156,486	-0,028	-0,028
-302,037	-1,572	-0,080	-0,041
-301,022	-158,208	0,086	-0,004
-300,008	-109,636	0,106	-0,016
-298,993	800,000	-0,029	-0,080
-297,978	264,425	-0,046	-0,058
-296,964	-200,000	0,036	-0,143
-295,949	-200,000	0,011	-0,080
-294,935	96,497	-0,142	-0,118
-293,920	331,770	0,029	-0,040
-292,905	26,076	0,041	0,025
-291,891	33,875	0,040	0,025
-290,876	800,000	-0,076	0,160
-289,862	-108,855	-0,163	0,025
-288,847	347,587	0,090	-0,128
-287,832	-200,000	0,024	-0,128
-286,818	219,367	0,071	-0,082
-285,803	-200,000	-0,029	0,121
-284,789	63,690	0,061	-0,044
-283,774	-179,547	-0,117	0,002
-282,759	-63,401	-0,181	-0,053
-281,745	-70,579	-0,095	-0,026
-280,730	-149,100	-0,017	0,001
-279,716	-8,002	0,056	0,027
-278,701	-200,000	0,006	0,049
-277,686	628,752	-0,043	0,079
-276,672	-200,000	0,025	0,108
-275,657	-200,000	-0,005	0,024
-274,643	65,211	-0,029	0,021
-273,628	800,000	-0,038	-0,113
-272,613	-200,000	-0,005	0,042
-271,599	37,953	0,069	0,044
-270,584	56,591	-0,070	0,049
-269,570	532,991	-0,084	0,145
-268,555	627,671	0,009	-0,017
-267,540	14,923	0,069	0,039
-266,526	344,041	0,043	-0,061
-265,511	-57,407	-0,069	0,022
-264,497	-200,000	0,048	-0,156
-263,482	-136,061	0,113	-0,009
-262,467	382,270	0,010	0,015
-261,453	-21,863	-0,118	0,051
-260,438	-122,941	-0,123	0,014
-259,424	147,098	-0,094	-0,091
-258,409	-200,000	-0,006	0,056
-257,395	-200,000	0,010	-0,059
-256,380	238,287	0,125	0,150
-255,365	-152,061	-0,009	-0,000
-254,351	800,000	-0,029	0,091
-253,336	-200,000	-0,022	0,103
-252,322	-200,000	0,040	-0,166
-251,307	438,937	-0,054	-0,086
-250,292	9,251	0,074	0,040
-249,278	45,861	0,116	-0,077
-248,263	-98,581	0,051	0,009
-247,249	800,000	-0,038	0,082
-246,234	422,781	-0,064	0,100
-245,219	122,523	-0,040	-0,036
-244,205	46,796	-0,046	-0,031
-243,190	-200,000	0,002	0,013
-242,176	110,522	0,066	0,058
-241,161	234,661	0,055	0,065
-240,146	-200,000	-0,023	-0,095
-239,132	800,000	-0,041	0,095
-238,117	543,709	-0,062	-0,107
-237,103	-52,077	0,027	0,009
-236,088	-16,720	-0,035	0,016
-235,073	-200,000	-0,013	0,070
-234,059	-70,363	-0,023	0,006
-233,044	-37,901	0,013	-0,005
-232,030	800,000	0,042	-0,112
-231,015	-200,000	-0,004	-0,079
-230,000	78,217	-0,012	0,009
-228,986	112,267	0,027	0,024
-227,971	800,000	0,003	0,009
-226,957	-102,589	0,098	-0,017
-225,942	531,727	-0,018	-0,031
-224,927	800,000	-0,081	0,162
-223,913	39,410	-0,046	0,030
-222,898	-200,000	-0,040	0,135
-221,884	800,000	-0,054	-0,131
-220,869	98,964	-0,095	-0,079
-219,855	139,994	0,138	-0,131
-218,840	-63,677	-0,095	0,028
-217,825	-44,844	-0,042	0,015
-216,811	800,000	0,060	-0,178
-215,796	-112,869	-0,066	0,009
-214,782	-200,000	0,013	0,070
-213,767	-25,510	0,161	0,068
-212,752	221,741	0,045	0,053
-211,738	-200,000	0,013	0,057
-210,723	-57,835	-0,130	0,041
-209,709	-70,157	-0,019	-0,005
-208,694	800,000	0,068	0,137
-207,679	800,000	-0,040	-0,106
-206,665	-135,813	0,157	-0,013
-205,650	274,210	-0,045	-0,057
-204,636	482,133	0,068	0,112
-203,621	14,777	0,077	0,043
-202,606	617,714	0,079	0,144
-201,592	-200,000	0,017	-0,068
-200,577	449,318	0,028	-0,044
-199,563	-60,911	0,152	-0,046
-198,548	608,193	0,029	-0,052
-197,533	-200,000	0,026	0,207
-196,519	-140,874	0,127	0,009
-195,504	202,088	0,203	0,226
-194,490	139,464	-0,041	0,039
-193,475	-200,000	0,006	0,084
-192,460	216,074	0,061	0,070
-191,446	60,915	0,030	0,022
-190,431	358,637	-0,080	-0,116
-189,417	9,187	0,145	-0,079
-188,402	13,230	-0,110	0,061
-187,387	800,000	-0,005	0,015
-186,373	142,349	-0,057	-0,054
-185,358	271,886	0,011	-0,014
-184,344	-200,000	-0,000	-0,054
-183,329	167,388	0,050	-0,051
-182,315	-200,000	-0,029	-0,153
-181,300	-200,000	0,008	0,046
-180,285	-101,826	-0,067	-0,011
-179,271	74,322	-0,062	-0,047
-178,256	-38,872	-0,044	-0,017
-177,242	-200,000	-0,004	-0,025
-176,227	-50,490	0,110	-0,037
-175,212	-99,219	0,059	-0,011
-174,198	-200,000	-0,004	-0,017
-173,183	273,811	-0,098	-0,126
-172,169	800,000	0,075	0,166
-171,154	-200,000	0,017	-0,087
-170,139	-93,725	-0,063	-0,012
-169,125	-52,394	0,042	0,014
-168,110	38,069	0,105	-0,067
-167,096	52,445	0,139	-0,096
-166,081	800,000	0,017	-0,047
-165,066	800,000	0,028	-0,064
-164,052	-200,000	-0,006	-0,026
-163,037	-11,027	0,106	0,050
-162,023	274,317	-0,064	-0,082
-161,008	62,467	0,077	0,056
-159,993	148,278	-0,022	-0,021
-158,979	-34,803	-0,170	0,067
-157,964	105,276	0,086	0,073
-156,950	172,350	-0,038	0,039
-155,935	351,732	-0,038	-0,054
-154,920	-200,000	-0,038	0,155
-153,906	800,000	0,039	0,085
-152,891	31,476	-0,062	0,038
-151,877	227,429	-0,016	0,019
-150,862	-126,014	-0,096	0,010
-149,847	-32,159	-0,110	-0,044
-148,833	22,630	0,120	0,071
-147,818	17,672	0,042	-0,024
-146,804	14,012	0,059	0,033
-145,789	186,719	0,047	0,050
-144,775	-25,384	0,051	-0,022
-143,760	134,043	0,092	-0,086
-142,745	429,166	-0,034	-0,053
-141,731	-200,000	-0,037	0,155
-140,716	5,075	0,138	0,073
-139,702	108,466	0,062	-0,053
-138,687	-200,000	0,005	0,090
-137,672	-140,546	0,146	0,011
-136,658	-200,000	-0,005	0,023
-135,643	762,660	0,065	-0,128
-134,629	-200,000	0,019	-0,136
-133,614	-200,000	-0,003	0,086
-132,599	800,000	0,000	-0,001
-131,585	-200,000	-0,006	0,073
-130,570	545,137	-0,044	-0,077
-129,556	488,087	-0,044	-0,072
-128,541	-200,000	-0,003	-0,065
-127,526	-200,000	0,002	-0,190
-126,512	440,548	0,072	-0,113
-125,497	-179,331	0,016	-0,000
-124,483	-200,000	0,017	-0,055
-123,468	-66,140	-0,092	0,026
-122,453	-55,270	0,083	-0,027
-121,439	747,915	0,033	0,064
-120,424	375,146	-0,113	-0,166
-119,410	-163,381	-0,081	-0,003
-118,395	-200,000	-0,021	0,079
-117,380	428,708	0,064	-0,100
-116,366	-113,635	-0,076	-0,011
-115,351	-185,116	-0,026	0,000
-114,337	-73,501	-0,048	-0,013
-113,322	481,246	0,045	0,073
-112,307	-200,000	0,007	-0,044
-111,293	-179,709	0,159	-0,002
-110,278	-129,424	0,030	-0,003
-109,264	-79,436	-0,117	-0,028
-108,249	142,779	-0,056	0,054
-107,234	25,745	0,045	-0,027
-106,220	147,846	0,021	0,020
-105,205	19,384	-0,082	0,047
-104,191	-23,903	0,070	0,030
-103,176	199,169	0,049	-0,054
-102,162	97,284	-0,019	-0,016
-101,147	64,643	-0,090	-0,065
-100,132	800,000	-0,012	-0,024
-99,118	489,830	0,047	0,077
-98,103	-200,000	-0,026	-0,084
-97,089	800,000	0,022	-0,044
-96,074	-34,342	0,119	-0,047
-95,059	706,675	0,071	0,135
-94,045	-200,000	-0,017	-0,083
-93,030	-34,379	-0,137	0,054
-92,016	800,000	-0,053	-0,126
-91,001	800,000	0,045	0,107
-89,986	62,497	0,104	0,075
-88,972	268,964	0,058	0,073
-87,957	-200,000	0,010	0,077
-86,943	-200,000	-0,015	-0,141
-85,928	125,382	0,063	-0,057
-84,913	-200,000	-0,003	0,012
-83,899	-58,918	-0,178	-0,055
-82,884	571,909	-0,018	0,032
-81,870	-200,000	0,001	0,025
-80,855	-26,499	0,107	0,045
-79,840	800,000	0,034	0,081
-78,826	-40,467	-0,037	0,014
-77,811	-154,566	0,153	0,007
-76,797	59,947	-0,009	-0,006
-75,782	149,499	0,073	-0,071
-74,767	-200,000	0,005	0,090
-73,753	-142,729	0,074	-0,005
-72,738	59,441	-0,057	0,041
-71,724	-106,250	0,049	0,008
-70,709	-99,774	0,093	0,016
-69,694	330,736	-0,100	-0,138
-68,680	800,000	0,053	-0,147
-67,665	800,000	-0,004	0,012
-66,651	200,112	0,078	0,086
-65,636	-160,484	0,126	-0,005
-64,622	-116,042	-0,171	0,023
-63,607	800,000	-0,035	0,102
-62,592	800,000	-0,025	0,055
-61,578	306,784	-0,040	0,054
-60,563	604,876	-0,089	0,160
-59,549	-200,000	0,003	-0,070
-58,534	10,818	-2,085	-1,138
-57,519	-200,000	-0,244	-0,911
-56,505	-200,000	-1,374	-5,015
-55,490	105,328	0,695	0,588
-54,476	800,000	5,256	12,019
-53,461	-200,000	18,281	300,391
-52,446	800,000	734,554	2268,383
-51,432	543,582	1650,386	2834,585
-50,417	109,428	1637,740	1405,736
-49,403	74,027	1288,300	968,000
-48,388	30,750	1028,502	629,682
-47,373	19,967	990,495	570,832
-46,359	17,853	978,163	556,771
-45,344	14,632	974,336	544,026
-44,330	14,977	972,671	544,203
-43,315	14,370	970,880	541,194
-42,300	14,358	969,772	540,517
-41,286	14,340	968,959	539,982
-40,271	14,327	967,805	539,276
-39,257	14,342	966,924	538,814
-38,242	14,365	966,019	538,364
-37,227	14,394	965,248	538,007
-36,213	14,351	964,433	537,389
-35,198	14,347	963,382	536,771
-34,184	14,371	962,701	536,447
-33,169	14,302	961,820	535,714
-32,154	14,398	960,739	535,400
-31,140	14,377	959,890	534,838
-30,125	14,363	959,296	534,439
-29,111	14,351	958,561	533,971
-28,096	14,400	957,767	533,665
-27,082	14,350	956,969	533,037
-26,067	14,368	956,329	532,720
-25,052	14,381	955,557	532,308
-24,038	14,290	955,199	531,796
-23,023	14,337	954,272	531,410
-22,009	14,386	953,556	531,148
-20,994	14,354	953,044	530,738
-19,979	14,367	952,399	530,400
-18,965	14,361	951,748	529,995
-17,950	14,378	951,079	529,658
-16,936	14,257	950,488	528,919
-15,921	14,270	949,703	528,504
-14,906	14,210	948,916	527,854
-13,892	14,199	948,457	527,544
-12,877	14,263	947,695	527,301
-11,863	14,212	947,222	526,854
-10,848	14,256	946,565	526,609
-9,833	14,269	946,114	526,378
-8,819	14,351	945,455	526,250
-7,804	14,262	944,967	525,677
-6,790	14,275	944,378	525,369
-5,775	14,328	943,878	525,239
-4,760	14,215	943,168	524,463
-3,746	14,237	942,592	524,191
-2,731	14,175	941,807	523,539
-1,717	14,058	941,178	522,797
-0,702	14,130	940,431	522,589
0,313	13,862	939,797	522,179
1,327	17,122	937,680	531,231
2,342	26,004	793,786	473,227
3,356	22,610	459,581	268,766
4,371	-3,860	316,645	156,852
5,386	-7,800	298,692	143,930
6,400	-9,607	292,425	139,092
7,415	-10,057	289,768	137,370
8,429	-10,326	288,333	136,413
9,444	-10,473	287,509	135,866
10,459	-10,420	286,913	135,624
11,473	-10,479	286,253	135,242
12,488	-10,542	285,932	135,017
13,502	-10,530	285,259	134,698
14,517	-10,670	284,687	134,281
15,531	-10,732	284,373	134,060
16,546	-10,451	283,842	134,071
17,561	-10,572	283,410	133,737
18,575	-10,537	283,144	133,634
19,590	-10,650	282,786	133,344
20,604	-10,640	282,430	133,174
21,619	-10,705	282,153	132,969
22,634	-10,585	281,645	132,833
23,648	-10,783	281,482	132,554
24,663	-10,591	281,067	132,530
25,677	-10,806	280,878	132,223
26,692	-10,660	280,553	132,199
27,707	-10,657	280,434	132,133
28,721	-10,827	280,083	131,794
29,736	-10,537	279,695	131,877
30,750	-10,703	279,472	131,602
31,765	-10,863	279,255	131,335
32,780	-10,803	279,039	131,279
33,794	-10,812	278,819	131,155
34,809	-10,830	278,478	130,966
35,823	-10,834	278,233	130,835
36,838	-10,654	277,904	130,839
37,853	-11,026	277,832	130,441
38,867	-10,692	277,399	130,543
39,882	-10,865	277,190	130,269
40,896	-10,672	276,976	130,339
41,911	-10,658	276,681	130,201
42,926	-10,811	276,618	130,016
43,940	-10,700	276,106	129,869
44,955	-10,973	275,998	129,549
45,969	-10,942	275,933	129,536
46,984	-10,887	275,410	129,331
47,999	-11,257	275,249	128,896
49,013	-11,349	275,036	128,699
50,028	-11,493	274,570	128,334
51,042	-11,640	274,429	128,120
52,057	-11,662	274,245	128,002
53,071	-11,408	273,939	128,085
54,086	-11,436	273,832	127,997
55,101	-11,129	273,620	128,173
56,115	-10,860	273,472	128,342
57,130	-10,647	273,409	128,500
58,144	-10,426	273,183	128,588
59,159	-10,671	273,055	128,288
60,174	-10,592	272,684	128,176
61,188	-10,414	272,546	128,265
62,203	-10,485	272,240	128,044
63,217	-10,614	272,176	127,882
64,232	-10,538	271,854	127,790
65,247	-10,409	271,601	127,779
66,261	-10,575	271,424	127,530
67,276	-10,786	270,987	127,120
68,290	-11,034	270,817	126,801
69,305	-11,014	270,614	126,713
70,320	-10,961	270,414	126,656
71,334	-10,719	270,303	126,815
72,349	-10,599	270,176	126,854
73,363	-10,580	269,823	126,695
74,378	-10,543	269,573	126,600
75,393	-10,535	269,480	126,552
76,407	-10,598	269,120	126,315
77,422	-10,668	268,996	126,181
78,436	-10,453	268,700	126,228
79,451	-10,577	268,510	126,014
80,466	-10,604	267,953	125,717
81,480	-10,799	267,865	125,487
82,495	-10,843	267,781	125,396
83,509	-10,836	267,761	125,382
84,524	-10,912	267,375	125,121
85,539	-10,973	267,058	124,906
86,553	-11,013	266,861	124,766
87,568	-10,830	266,720	124,855
88,582	-10,856	266,543	124,738
89,597	-10,845	266,401	124,671
90,611	-10,806	266,340	124,666
91,626	-10,574	266,095	124,750
92,641	-10,637	265,989	124,632
93,655	-10,601	265,634	124,487
94,670	-10,685	265,384	124,283
95,684	-10,629	265,103	124,190
96,699	-10,693	265,040	124,092
97,714	-10,688	264,764	123,956
98,728	-10,885	264,555	123,671
99,743	-10,837	264,135	123,506
100,757	-10,881	264,093	123,437
101,772	-10,828	263,990	123,425
102,787	-11,007	263,727	123,130
103,801	-10,670	263,598	123,361
104,816	-10,611	263,384	123,302
105,830	-10,537	263,315	123,325
106,845	-10,549	263,040	123,175
107,860	-10,615	262,879	123,030
108,874	-10,540	262,572	122,942
109,889	-10,606	262,423	122,802
110,903	-10,694	262,222	122,619
111,918	-10,657	261,950	122,513
112,933	-10,680	261,743	122,386
113,947	-10,586	261,667	122,422
114,962	-10,596	261,566	122,356
115,976	-10,527	261,255	122,260
116,991	-10,470	260,977	122,170
118,006	-10,771	260,975	121,892
119,020	-10,429	260,870	122,134
120,035	-10,479	260,582	121,944
121,049	-10,619	260,452	121,748
122,064	-10,578	260,293	121,699
123,079	-10,696	260,142	121,514
124,093	-10,640	259,873	121,427
125,108	-10,764	259,416	121,094
126,122	-10,966	259,382	120,890
127,137	-10,999	259,072	120,706
128,151	-10,961	258,842	120,621
129,166	-10,843	258,749	120,670
130,181	-10,911	258,546	120,505
131,195	-11,001	258,376	120,337
132,210	-10,729	258,065	120,419
133,224	-10,618	257,962	120,457
134,239	-10,477	257,815	120,500
135,254	-10,479	257,620	120,397
136,268	-10,554	257,311	120,176
137,283	-10,747	257,010	119,857
138,297	-10,828	256,840	119,697
139,312	-10,803	256,632	119,611
140,327	-10,809	256,768	119,658
141,341	-10,476	256,435	119,781
142,356	-10,598	256,466	119,679
143,370	-10,471	256,190	119,650
144,385	-10,406	255,890	119,555
145,400	-10,313	255,752	119,560
146,414	-10,462	255,528	119,316
147,429	-10,466	255,407	119,245
148,443	-10,508	255,221	119,112
149,458	-10,224	255,021	119,252
150,473	-10,282	254,841	119,108
151,487	-10,563	254,784	118,829
152,502	-10,291	254,362	118,855
153,516	-10,427	254,385	118,738
154,531	-10,442	254,073	118,569
155,546	-10,386	253,997	118,571
156,560	-10,338	253,799	118,510
157,575	-10,527	253,520	118,207
158,589	-10,453	253,428	118,217
159,604	-10,423	253,270	118,158
160,619	-10,389	252,960	118,032
161,633	-10,334	252,930	118,055
162,648	-10,279	252,585	117,929
163,662	-10,249	252,491	117,901
164,677	-10,387	252,397	117,729
165,692	-10,374	252,155	117,617
166,706	-10,225	252,189	117,749
167,721	-10,452	251,991	117,453
168,735	-10,252	251,776	117,512
169,750	-10,349	251,629	117,351
170,764	-10,182	251,511	117,427
171,779	-10,271	251,347	117,264
172,794	-10,363	250,972	117,001
173,808	-10,472	250,825	116,830
174,823	-10,870	250,597	116,377
175,837	-11,038	250,378	116,124
176,852	-10,673	250,381	116,422
177,867	-10,271	250,148	116,643
178,881	-10,289	250,008	116,551
179,896	-10,119	249,846	116,609
180,910	-10,375	249,726	116,326
181,925	-10,313	249,504	116,265
182,940	-10,223	249,262	116,218
183,954	-10,146	249,320	116,299
184,969	-10,155	249,015	116,139
185,983	-10,178	248,861	116,037
186,998	-10,193	248,695	115,937
188,013	-10,152	248,479	115,860
189,027	-10,204	248,246	115,698
190,042	-10,317	248,192	115,568
191,056	-10,288	248,081	115,530
192,071	-10,391	248,031	115,411
193,086	-10,260	247,637	115,327
194,100	-10,269	247,487	115,238
195,115	-10,153	247,291	115,234
196,129	-10,284	247,111	115,030
197,144	-10,201	246,900	114,990
198,159	-10,147	246,774	114,967
199,173	-10,179	246,554	114,827
200,188	-10,162	246,296	114,711
201,202	-10,421	246,084	114,388
202,217	-10,634	245,700	114,024
203,232	-10,688	245,475	113,865
204,246	-10,340	245,720	114,255
205,261	-9,718	245,581	114,693
206,275	-10,302	245,340	114,090
207,290	-6,076	247,052	118,380
208,304	1,274	249,291	125,573
209,319	4,404	250,038	128,549
210,334	4,739	250,055	128,825
211,348	5,077	249,960	129,046
212,363	5,149	249,913	129,070
213,377	5,299	249,912	129,183
214,392	5,017	249,698	128,826
215,407	5,203	249,299	128,763
216,421	5,285	249,216	128,777
217,436	5,126	249,217	128,634
218,450	5,466	249,042	128,814
219,465	5,125	248,823	128,407
220,480	5,036	248,507	128,159
221,494	4,704	248,283	127,758
222,509	5,032	248,150	127,948
223,523	4,664	248,142	127,629
224,538	4,226	247,932	127,149
225,553	4,632	247,563	127,283
226,567	5,055	247,465	127,568
227,582	4,781	247,478	127,339
228,596	4,680	247,247	127,125
229,611	4,568	246,822	126,804
230,626	4,504	246,836	126,747
231,640	4,514	246,646	126,646
232,655	4,720	246,399	126,677
233,669	4,549	246,377	126,514
234,684	4,562	246,021	126,331
235,699	4,736	246,079	126,492
236,713	4,984	246,015	126,650
237,728	4,417	245,741	126,036
238,742	4,519	245,457	125,962
239,757	4,398	245,283	125,762
240,772	4,472	245,195	125,766
241,786	4,761	244,946	125,862
242,801	4,463	244,937	125,603
243,815	4,620	244,649	125,572
244,830	4,857	244,632	125,745
245,844	4,826	244,520	125,651
246,859	4,543	244,214	125,253
247,874	4,319	244,229	125,068
248,888	4,527	244,015	125,116
249,903	4,587	243,856	125,072
250,917	4,899	243,647	125,205
251,932	4,795	243,653	125,113
252,947	4,899	243,352	125,032
253,961	4,485	243,208	124,612
254,976	4,665	243,131	124,707
255,990	4,817	242,834	124,666
257,005	4,692	242,638	124,454
258,020	4,279	242,480	124,030
259,034	4,433	242,387	124,095
260,049	4,654	242,221	124,176
261,063	4,301	242,071	123,805
262,078	4,512	241,904	123,878
263,093	4,654	241,729	123,891
264,107	4,845	241,714	124,025
265,122	4,707	241,489	123,788
266,136	4,816	241,416	123,827
267,151	4,809	241,303	123,752
268,166	4,604	240,943	123,393
269,180	4,444	240,737	123,149
270,195	5,054	240,864	123,690
271,209	5,294	240,614	123,742
272,224	4,687	240,356	123,114
273,239	4,179	240,024	122,529
274,253	4,372	239,905	122,611
275,268	4,647	239,927	122,830
276,282	4,714	239,693	122,752
277,297	4,410	239,587	122,446
278,312	4,187	239,432	122,179
279,326	4,639	239,263	122,440
280,341	4,741	239,097	122,425
281,355	4,694	238,989	122,321
282,370	4,833	238,947	122,399
283,384	4,639	238,616	122,066
284,399	4,674	238,416	121,980
285,414	4,376	238,286	121,667
286,428	4,277	238,161	121,515
287,443	4,401	238,038	121,539
288,457	4,785	237,949	121,785
289,472	4,753	237,872	121,710
290,487	4,532	237,741	121,458
291,501	4,303	237,435	121,111
292,516	4,275	237,194	120,955
293,530	4,303	237,112	120,925
294,545	4,527	237,110	121,089
295,560	4,519	236,871	120,949
296,574	4,328	236,485	120,592
297,589	4,307	236,593	120,620
298,603	4,866	236,359	120,926
299,618	4,920	236,436	120,997
300,633	4,626	236,280	120,678
301,647	4,964	236,085	120,831
302,662	5,115	236,053	120,921
303,676	5,043	235,687	120,667
304,691	4,898	235,555	120,476
305,706	5,003	235,651	120,596
306,720	5,049	235,379	120,481
307,735	4,913	235,030	120,186
308,749	4,492	235,038	119,853
309,764	4,481	234,761	119,693
310,779	4,326	234,525	119,441
311,793	4,159	234,453	119,265
312,808	3,960	234,170	118,957
313,822	4,097	233,996	118,964
314,837	4,679	233,921	119,364
315,852	4,559	233,903	119,252
316,866	4,804	233,730	119,342
317,881	4,760	233,584	119,223
318,895	4,834	233,627	119,291
319,910	5,069	233,354	119,321
320,925	4,563	233,063	118,773
321,939	4,349	232,988	118,560
322,954	4,618	232,821	118,671
323,968	4,659	232,607	118,583
324,983	4,546	232,575	118,469
325,997	4,765	232,556	118,617
327,012	4,808	232,379	118,549
328,027	4,759	232,112	118,365
329,041	5,203	231,959	118,615
330,056	5,231	232,097	118,697
331,070	5,509	231,920	118,808
332,085	5,039	231,617	118,283
333,100	4,874	231,429	118,052
334,114	4,718	231,313	117,863
335,129	4,931	231,228	117,972
336,143	5,175	231,122	118,093
337,158	5,109	230,886	117,911
338,173	4,707	230,757	117,529
339,187	4,661	230,418	117,311
340,202	4,723	230,476	117,377
341,216	4,573	230,293	117,160
342,231	4,504	230,173	117,036
343,246	4,694	229,900	117,031
344,260	4,829	229,763	117,052
345,275	4,933	229,752	117,115
346,289	4,940	229,635	117,051
347,304	4,949	229,434	116,944
348,319	5,110	229,345	117,010
349,333	4,697	229,119	116,573
350,348	4,463	229,071	116,361
351,362	4,747	228,843	116,450
352,377	4,559	228,531	116,139
353,392	4,369	228,444	115,942
354,406	4,508	228,303	115,964
355,421	195,056	1318,421	1391,856
356,435	156,419	1451,212	1391,828
