DTS Sentinel unit serial number:	SN410029Multiplexer serial number:	ORYXHardware model number:	OX2-SRSoftware version number:	ORYX F/W v4,00 Oryx Data Collector v3.7.2.0data status	okinstallation	B5 Nyhavnadifferential loss correction	single-endedforward channel	channel 2reverse channel	N/Adate	2023/12/11time	16:37:13forward acquisition time	300,00reverse acquisition time	0,00gamma	499,1914k internal	0,3165k external	0,3165temperature offset calibration	1,0000default loss term (dB/km)	0,3820temperature slope calibration	1,0000multiplexer offset coefficient	1,0000multiplexer slope coefficient	1,0000fibre end	0,00T internal ref (°C)	14,14T ext. ref 1 (°C)	-0,84T ext. ref 2 (°C)	-0,92length (m)	temperature (°C)	Stokes	anti-Stokes-744,400	-89,236	0,103	-0,022
-743,385	-147,838	-0,323	0,020
-742,371	13,659	0,208	-0,118
-741,356	-15,825	-0,282	0,132
-740,342	-63,488	0,114	0,034
-739,327	-165,801	-0,358	0,011
-738,312	-55,427	0,092	-0,030
-737,298	-149,854	-0,368	0,021
-736,283	-200,000	0,007	0,089
-735,269	-43,420	-0,274	0,101
-734,254	153,957	0,080	0,080
-733,239	-88,378	-0,416	-0,091
-732,225	29,368	0,121	0,075
-731,210	-92,029	-0,169	0,035
-730,196	-200,000	-0,001	-0,036
-729,181	-60,713	-0,137	-0,042
-728,167	-19,581	-0,098	0,044
-727,152	-200,000	-0,023	-0,076
-726,137	433,523	0,053	0,085
-725,123	276,534	-0,092	-0,120
-724,108	119,975	-0,115	-0,105
-723,094	800,000	-0,048	-0,133
-722,079	-200,000	-0,001	-0,076
-721,064	-200,000	-0,082	0,000
-720,050	389,132	-0,053	-0,082
-719,035	800,000	-0,030	-0,066
-718,021	-200,000	0,021	0,086
-717,006	696,809	0,027	0,053
-715,991	-200,000	0,000	-0,048
-714,977	-7,219	-0,054	-0,027
-713,962	-128,993	0,021	0,002
-712,948	29,050	0,025	-0,015
-711,933	-200,000	0,005	0,070
-710,918	114,059	-0,059	-0,052
-709,904	-73,676	0,068	0,018
-708,889	-15,806	0,021	-0,010
-707,875	-150,576	-0,022	-0,001
-706,860	-113,451	0,091	0,013
-705,845	-200,000	-0,005	-0,081
-704,831	14,667	-0,104	0,059
-703,816	-200,000	0,016	-0,173
-702,802	-200,000	-0,063	-0,211
-701,787	304,353	-0,047	0,064
-700,772	-200,000	0,015	-0,149
-699,758	91,168	0,047	-0,038
-698,743	-200,000	-0,004	0,060
-697,729	-200,000	-0,011	0,058
-696,714	79,521	-0,060	-0,047
-695,699	-132,983	-0,189	0,017
-694,685	83,570	-0,065	-0,052
-693,670	119,874	0,044	0,040
-692,656	356,354	-0,058	-0,086
-691,641	-200,000	0,002	0,108
-690,627	194,122	-0,045	0,050
-689,612	-98,992	-0,084	-0,016
-688,597	800,000	0,032	-0,066
-687,583	71,658	-0,158	-0,120
-686,568	233,494	0,032	0,039
-685,554	-200,000	-0,010	-0,041
-684,539	-76,449	0,086	-0,022
-683,524	-200,000	-0,015	0,074
-682,510	236,182	0,118	0,144
-681,495	-92,583	-0,094	0,019
-680,481	-15,222	-0,108	-0,050
-679,466	24,934	0,072	0,044
-678,451	153,598	-0,064	-0,064
-677,437	-104,232	-0,120	-0,020
-676,422	800,000	-0,006	0,016
-675,408	81,605	-0,009	0,007
-674,393	795,414	-0,055	0,112
-673,378	-23,840	0,053	-0,023
-672,364	159,602	-0,106	-0,108
-671,349	-70,092	-0,129	-0,036
-670,335	63,250	-0,021	-0,015
-669,320	-200,000	0,021	-0,077
-668,305	-200,000	0,002	0,157
-667,291	41,552	-0,209	-0,138
-666,276	-200,000	-0,002	0,018
-665,262	-200,000	-0,002	0,099
-664,247	800,000	-0,033	-0,075
-663,232	530,654	0,090	0,156
-662,218	301,335	0,038	-0,052
-661,203	-166,007	0,126	0,004
-660,189	-137,030	-0,030	0,002
-659,174	800,000	-0,036	-0,091
-658,159	142,289	0,089	-0,087
-657,145	-13,038	0,061	-0,029
-656,130	473,920	0,043	0,072
-655,116	-15,016	-0,034	-0,016
-654,101	392,560	0,034	0,052
-653,086	-110,335	-0,156	0,024
-652,072	800,000	-0,073	-0,153
-651,057	-53,300	0,105	0,035
-650,043	74,396	0,036	-0,028
-649,028	469,958	0,022	-0,037
-648,014	227,259	0,080	0,095
-646,999	800,000	0,050	0,118
-645,984	17,687	-0,042	0,024
-644,970	-200,000	-0,004	0,024
-643,955	21,035	-0,036	0,021
-642,941	57,419	-0,164	0,117
-641,926	-49,001	-0,032	0,011
-640,911	25,619	0,079	-0,048
-639,897	800,000	-0,020	0,041
-638,882	-200,000	0,016	-0,076
-637,868	348,604	0,082	0,119
-636,853	-200,000	-0,006	-0,062
-635,838	-200,000	0,005	-0,046
-634,824	133,925	-0,096	0,091
-633,809	171,338	0,043	0,045
-632,795	-8,305	-0,071	0,035
-631,780	272,025	-0,036	0,047
-630,765	-200,000	-0,016	0,143
-629,751	800,000	-0,042	0,089
-628,736	127,335	-0,072	0,067
-627,722	-141,560	-0,021	0,001
-626,707	800,000	-0,004	-0,008
-625,692	158,735	0,109	0,111
-624,678	355,969	0,047	-0,068
-623,663	-200,000	0,003	0,039
-622,649	-160,646	-0,130	-0,005
-621,634	-200,000	0,021	-0,086
-620,619	-70,442	-0,114	0,031
-619,605	-200,000	-0,015	0,059
-618,590	-200,000	-0,003	0,096
-617,576	800,000	-0,070	0,215
-616,561	-200,000	0,007	-0,038
-615,546	-200,000	0,012	0,054
-614,532	176,474	0,009	0,010
-613,517	263,992	-0,074	-0,095
-612,503	4,161	0,041	-0,022
-611,488	-108,545	0,155	-0,024
-610,474	213,414	0,025	-0,029
-609,459	-200,000	0,013	-0,098
-608,444	110,263	-0,044	0,039
-607,430	42,566	0,052	-0,034
-606,415	-200,000	0,006	-0,079
-605,401	402,154	-0,048	-0,074
-604,386	-125,650	-0,069	-0,008
-603,371	-200,000	-0,015	0,058
-602,357	166,024	-0,118	-0,122
-601,342	-200,000	-0,002	-0,095
-600,328	-64,588	-0,097	-0,029
-599,313	223,777	-0,077	-0,091
-598,298	142,934	-0,034	-0,033
-597,284	-200,000	-0,008	0,088
-596,269	-200,000	0,007	0,115
-595,255	-200,000	0,044	0,153
-594,240	-58,091	-0,061	0,019
-593,225	-102,383	-0,049	-0,009
-592,211	126,509	-0,052	-0,048
-591,196	59,391	0,070	0,050
-590,182	776,423	0,018	0,036
-589,167	800,000	0,048	0,129
-588,152	-166,952	0,088	0,003
-587,138	64,674	0,048	0,035
-586,123	134,103	-0,137	0,130
-585,109	-50,178	-0,064	0,022
-584,094	800,000	-0,050	-0,104
-583,079	-200,000	0,014	0,086
-582,065	-178,287	-0,219	0,004
-581,050	-174,202	0,089	-0,002
-580,036	-90,891	0,134	-0,028
-579,021	130,709	-0,043	-0,040
-578,006	-200,000	-0,001	-0,014
-576,992	800,000	-0,038	-0,097
-575,977	64,514	0,097	0,071
-574,963	-57,590	-0,095	-0,030
-573,948	528,023	0,034	-0,059
-572,934	-200,000	-0,011	0,056
-571,919	-200,000	0,002	0,052
-570,904	-200,000	-0,001	0,014
-569,890	-13,794	-0,096	-0,045
-568,875	30,126	-0,096	0,059
-567,861	-200,000	0,041	-0,165
-566,846	-58,172	-0,034	0,011
-565,831	-200,000	0,009	0,062
-564,817	-200,000	-0,033	-0,146
-563,802	-112,295	0,142	0,021
-562,788	471,118	0,027	0,044
-561,773	-200,000	-0,021	0,119
-560,758	800,000	0,030	0,095
-559,744	-68,478	0,135	0,038
-558,729	250,007	0,056	0,069
-557,715	80,993	0,030	0,023
-556,700	-26,939	-0,012	0,005
-555,685	-155,690	-0,050	-0,002
-554,671	-200,000	0,001	0,018
-553,656	82,433	-0,061	0,048
-552,642	605,100	-0,082	0,150
-551,627	664,684	0,045	0,086
-550,612	-26,865	-0,046	-0,019
-549,598	92,437	-0,110	-0,090
-548,583	116,569	-0,022	0,019
-547,569	187,933	0,096	-0,105
-546,554	117,366	0,066	-0,060
-545,539	313,149	0,063	0,086
-544,525	154,815	-0,061	0,062
-543,510	-77,777	-0,170	-0,042
-542,496	-19,927	0,077	-0,034
-541,481	-50,111	-0,167	-0,057
-540,466	-200,000	-0,006	-0,043
-539,452	295,881	0,033	0,044
-538,437	44,433	0,084	0,056
-537,423	153,827	0,075	0,075
-536,408	-200,000	-0,008	-0,059
-535,393	-200,000	0,008	-0,083
-534,379	-16,061	-0,073	0,034
-533,364	27,550	0,053	-0,033
-532,350	-138,219	-0,087	-0,007
-531,335	98,334	-0,050	-0,042
-530,321	-200,000	-0,006	-0,057
-529,306	1,984	-0,016	0,008
-528,291	25,893	-0,079	-0,048
-527,277	31,598	0,129	-0,081
-526,262	-169,884	-0,144	-0,004
-525,248	-114,204	-0,149	-0,021
-524,233	-200,000	0,022	0,078
-523,218	64,327	0,021	0,015
-522,204	-175,015	-0,142	-0,003
-521,189	223,284	-0,046	0,054
-520,175	800,000	0,066	-0,154
-519,160	13,030	-0,073	0,041
-518,145	-200,000	0,009	-0,109
-517,131	-109,961	0,151	0,023
-516,116	-150,381	0,066	0,004
-515,102	780,283	0,037	-0,075
-514,087	-136,761	-0,043	-0,004
-513,072	-13,603	0,030	0,014
-512,058	-16,113	-0,056	0,026
-511,043	744,586	0,029	0,057
-510,029	-103,114	0,063	-0,011
-509,014	642,084	0,041	0,076
-507,999	89,529	-0,061	-0,050
-506,985	2,339	-0,179	-0,094
-505,970	800,000	0,040	-0,085
-504,956	93,709	-0,167	-0,138
-503,941	-200,000	0,007	-0,101
-502,926	800,000	-0,043	0,101
-501,912	-200,000	0,007	0,126
-500,897	-50,990	-0,106	-0,036
-499,883	-178,453	0,071	0,001
-498,868	-200,000	-0,007	-0,084
-497,853	377,795	-0,046	-0,069
-496,839	-200,000	-0,004	-0,144
-495,824	-59,247	-0,044	0,014
-494,810	-60,558	-0,041	0,013
-493,795	613,129	0,056	0,103
-492,781	461,163	-0,057	-0,092
-491,766	208,628	-0,103	-0,117
-490,751	168,644	-0,066	-0,068
-489,737	71,236	0,024	0,018
-488,722	-63,979	0,106	-0,031
-487,708	-200,000	0,012	-0,181
-486,693	-87,786	0,107	-0,023
-485,678	-200,000	-0,005	0,059
-484,664	-144,657	-0,066	-0,004
-483,649	52,174	0,063	0,044
-482,635	-200,000	-0,016	-0,064
-481,620	-200,000	-0,029	0,179
-480,605	800,000	0,019	0,045
-479,591	408,829	0,055	0,084
-478,576	800,000	0,034	0,075
-477,562	89,601	0,067	-0,054
-476,547	-200,000	0,028	-0,167
-475,532	9,259	0,031	-0,017
-474,518	-200,000	-0,003	0,049
-473,503	-0,476	-0,147	0,076
-472,489	800,000	0,034	0,103
-471,474	252,706	-0,011	0,013
-470,459	-200,000	-0,010	0,048
-469,445	110,472	-0,017	0,015
-468,430	39,833	0,023	0,015
-467,416	57,043	0,049	0,034
-466,401	-95,331	0,096	0,019
-465,386	-138,315	0,026	-0,002
-464,372	-45,426	0,169	-0,060
-463,357	-58,430	0,014	0,004
-462,343	289,645	-0,062	-0,082
-461,328	-40,154	0,107	-0,041
-460,313	800,000	0,028	-0,088
-459,299	800,000	0,018	-0,055
-458,284	800,000	0,033	0,104
-457,270	184,125	0,036	-0,039
-456,255	800,000	0,031	0,073
-455,241	8,716	-0,099	-0,054
-454,226	-200,000	0,010	-0,177
-453,211	-167,253	0,023	-0,001
-452,197	-200,000	-0,019	0,188
-451,182	800,000	0,027	-0,071
-450,168	800,000	0,017	0,049
-449,153	557,220	0,042	-0,075
-448,138	-200,000	-0,012	-0,039
-447,124	-200,000	0,001	-0,182
-446,109	157,192	0,060	0,060
-445,095	-200,000	-0,018	0,105
-444,080	-23,090	0,129	0,056
-443,065	-47,654	-0,029	0,010
-442,051	800,000	0,030	-0,064
-441,036	81,216	-0,036	-0,028
-440,022	-81,882	-0,139	0,033
-439,007	217,845	0,017	-0,020
-437,992	-123,720	0,078	0,009
-436,978	-200,000	0,039	0,215
-435,963	-171,436	0,177	0,004
-434,949	800,000	0,043	-0,101
-433,934	-30,424	0,079	0,032
-432,919	-200,000	-0,017	-0,118
-431,905	800,000	0,011	0,024
-430,890	54,393	0,160	0,112
-429,876	35,819	0,078	-0,050
-428,861	594,435	0,055	0,100
-427,846	51,167	0,046	-0,032
-426,832	-89,295	0,020	0,004
-425,817	25,512	-0,034	0,021
-424,803	-32,687	-0,037	-0,015
-423,788	-69,121	0,184	0,051
-422,773	800,000	0,052	0,128
-421,759	-76,363	-0,028	0,007
-420,744	-135,440	0,056	-0,005
-419,730	800,000	-0,017	-0,044
-418,715	800,000	-0,033	0,076
-417,701	-200,000	0,006	0,052
-416,686	174,393	-0,041	-0,043
-415,671	105,664	0,059	0,051
-414,657	-79,156	0,177	0,043
-413,642	34,752	0,136	0,086
-412,628	-42,570	-0,139	-0,051
-411,613	15,532	-0,065	-0,037
-410,598	-55,875	0,060	0,019
-409,584	-200,000	0,010	-0,091
-408,569	121,844	-0,033	0,030
-407,555	140,015	0,067	0,064
-406,540	43,758	0,117	-0,078
-405,525	-92,522	-0,090	0,018
-404,511	-79,114	-0,101	0,025
-403,496	-59,403	0,156	-0,048
-402,482	372,963	0,039	0,058
-401,467	-32,085	-0,087	0,035
-400,452	800,000	0,068	0,144
-399,438	292,779	-0,084	0,112
-398,423	239,896	0,069	-0,083
-397,409	-200,000	0,001	0,026
-396,394	800,000	-0,012	-0,030
-395,379	114,661	-0,084	-0,075
-394,365	800,000	0,078	-0,163
-393,350	800,000	0,026	0,056
-392,336	-200,000	-0,002	-0,025
-391,321	97,131	0,016	-0,013
-390,306	31,829	-0,126	-0,079
-389,292	-62,753	-0,055	0,016
-388,277	-200,000	-0,007	-0,062
-387,263	800,000	0,065	0,134
-386,248	-200,000	-0,012	0,145
-385,233	104,667	0,184	0,157
-384,219	139,459	-0,090	-0,086
-383,204	800,000	-0,041	-0,115
-382,190	-200,000	-0,005	-0,059
-381,175	-156,213	0,072	0,003
-380,160	94,525	-0,053	0,044
-379,146	-97,644	-0,058	0,011
-378,131	-200,000	0,007	0,049
-377,117	-200,000	-0,018	0,078
-376,102	91,789	-0,100	-0,082
-375,088	460,712	-0,031	0,051
-374,073	-20,596	-0,075	0,033
-373,058	49,545	0,050	-0,034
-372,044	136,928	-0,018	-0,017
-371,029	399,947	0,023	0,035
-370,015	11,190	0,117	0,065
-369,000	-200,000	-0,004	-0,109
-367,985	-77,283	0,051	0,013
-366,971	105,088	-0,046	0,039
-365,956	800,000	0,034	0,083
-364,942	800,000	0,067	0,146
-363,927	-200,000	-0,010	0,077
-362,912	-97,115	-0,165	-0,031
-361,898	735,628	-0,023	-0,045
-360,883	-200,000	-0,020	-0,070
-359,869	-200,000	-0,011	-0,059
-358,854	69,965	0,072	0,054
-357,839	144,003	-0,078	0,075
-356,825	800,000	0,067	0,136
-355,810	94,963	0,028	0,023
-354,796	622,391	0,050	-0,092
-353,781	188,367	0,110	-0,119
-352,766	44,849	-0,109	0,072
-351,752	65,148	0,039	0,028
-350,737	676,816	-0,046	-0,088
-349,723	-200,000	0,004	0,015
-348,708	566,696	-0,037	0,066
-347,693	800,000	0,024	0,056
-346,679	-23,585	-0,131	0,057
-345,664	-200,000	-0,023	0,104
-344,650	-200,000	0,002	-0,045
-343,635	142,116	0,070	0,067
-342,620	265,943	-0,078	-0,099
-341,606	-48,490	-0,128	0,044
-340,591	191,627	-0,075	0,082
-339,577	100,146	0,106	-0,089
-338,562	42,332	0,023	0,015
-337,548	800,000	-0,033	-0,090
-336,533	-107,820	-0,154	0,024
-335,518	-200,000	0,024	-0,160
-334,504	-85,568	0,027	-0,006
-333,489	258,504	-0,043	0,054
-332,475	5,006	0,134	-0,071
-331,460	252,333	0,050	-0,062
-330,445	37,047	-0,019	0,012
-329,431	-116,737	0,072	-0,009
-328,416	453,724	0,026	-0,042
-327,402	-200,000	-0,010	0,087
-326,387	-200,000	-0,019	0,077
-325,372	21,831	0,035	0,020
-324,358	-8,570	-0,039	-0,019
-323,343	68,350	-0,011	0,008
-322,329	274,303	0,078	0,100
-321,314	-200,000	-0,002	0,052
-320,299	-200,000	-0,004	0,125
-319,285	-200,000	0,031	0,146
-318,270	106,289	0,039	-0,033
-317,256	-80,650	-0,015	-0,004
-316,241	301,927	-0,050	-0,067
-315,226	-200,000	0,013	-0,176
-314,212	-142,988	0,105	-0,007
-313,197	-30,903	-0,057	0,023
-312,183	589,671	-0,104	-0,186
-311,168	45,235	0,072	-0,048
-310,153	292,757	0,071	-0,094
-309,139	-200,000	-0,003	0,021
-308,124	284,986	0,039	-0,051
-307,110	10,640	-0,054	0,030
-306,095	44,301	0,131	0,087
-305,080	-200,000	0,014	0,067
-304,066	800,000	-0,023	-0,051
-303,051	800,000	-0,023	-0,061
-302,037	-200,000	-0,007	-0,039
-301,022	508,435	0,041	0,068
-300,008	800,000	-0,019	-0,050
-298,993	421,385	-0,093	0,145
-297,978	-59,266	0,079	-0,025
-296,964	-200,000	-0,043	-0,148
-295,949	-65,460	0,074	-0,021
-294,935	333,636	-0,051	-0,072
-293,920	-200,000	-0,017	-0,089
-292,905	10,917	0,123	-0,068
-291,891	395,426	0,085	-0,128
-290,876	19,705	-0,046	0,027
-289,862	-200,000	0,015	-0,086
-288,847	78,654	-0,104	0,080
-287,832	-18,472	-0,126	-0,057
-286,818	125,340	0,114	0,104
-285,803	-33,029	0,090	0,036
-284,789	90,656	0,076	0,061
-283,774	-79,193	-0,084	0,020
-282,759	-99,109	-0,036	-0,006
-281,745	88,130	-0,076	-0,061
-280,730	47,338	-0,047	-0,032
-279,716	-200,000	0,006	0,027
-278,701	5,774	0,007	-0,004
-277,686	29,094	0,063	0,038
-276,672	696,958	0,061	-0,117
-275,657	-25,650	0,116	-0,049
-274,643	440,299	-0,033	-0,053
-273,628	106,007	-0,130	-0,111
-272,613	-66,486	0,058	-0,017
-271,599	59,432	-0,152	0,108
-270,584	178,797	0,068	0,072
-269,570	27,148	-0,092	-0,055
-268,555	31,943	-0,038	0,023
-267,540	-200,000	0,014	0,064
-266,526	-68,959	0,070	-0,019
-265,511	800,000	-0,020	-0,063
-264,497	-200,000	0,013	-0,071
-263,482	800,000	0,020	-0,063
-262,467	339,158	0,104	-0,147
-261,453	170,421	0,040	-0,042
-260,438	-181,533	0,117	0,002
-259,424	-200,000	0,000	-0,052
-258,409	-200,000	-0,009	-0,053
-257,395	800,000	-0,021	-0,049
-256,380	177,831	0,060	0,063
-255,365	-4,729	0,057	-0,028
-254,351	118,138	-0,045	-0,040
-253,336	148,538	-0,072	-0,070
-252,322	-200,000	-0,035	-0,120
-251,307	-70,577	-0,058	0,016
-250,292	562,580	0,071	0,124
-249,278	-200,000	-0,003	0,055
-248,263	-200,000	0,002	0,122
-247,249	388,078	0,054	-0,081
-246,234	-142,780	-0,070	-0,005
-245,219	-45,292	-0,053	-0,019
-244,205	-59,944	-0,091	-0,028
-243,190	-182,347	0,142	-0,002
-242,176	471,099	-0,018	0,030
-241,161	135,994	0,152	0,143
-240,146	-200,000	-0,011	-0,037
-239,132	-77,781	-0,061	-0,015
-238,117	-200,000	0,003	0,030
-237,103	393,994	0,037	0,056
-236,088	-122,799	-0,155	-0,018
-235,073	-4,756	0,082	0,041
-234,059	74,255	0,050	0,038
-233,044	-200,000	-0,019	0,063
-232,030	800,000	-0,026	0,069
-231,015	51,350	-0,039	-0,027
-230,000	800,000	-0,040	-0,095
-228,986	-165,021	0,020	0,001
-227,971	-17,524	0,162	0,073
-226,957	-200,000	-0,001	0,036
-225,942	-145,725	-0,046	0,003
-224,927	-200,000	-0,025	0,125
-223,913	28,797	0,057	-0,035
-222,898	-141,289	-0,025	0,002
-221,884	411,260	-0,121	-0,186
-220,869	331,013	0,086	0,119
-219,855	178,581	0,090	0,095
-218,840	124,299	-0,049	0,044
-217,825	-159,820	-0,094	0,004
-216,811	138,574	-0,083	-0,079
-215,796	5,251	-0,047	-0,025
-214,782	-64,445	-0,050	0,015
-213,767	-200,000	0,009	-0,036
-212,752	7,953	0,019	0,010
-211,738	-177,328	-0,144	-0,002
-210,723	40,191	0,034	0,022
-209,709	-61,009	-0,182	-0,055
-208,694	-144,451	0,051	0,003
-207,679	800,000	-0,026	-0,077
-206,665	219,728	0,047	0,054
-205,650	-200,000	0,005	0,017
-204,636	800,000	0,034	-0,080
-203,621	-200,000	0,009	-0,074
-202,606	800,000	0,022	0,049
-201,592	792,408	-0,038	-0,076
-200,577	290,946	0,011	-0,014
-199,563	-50,573	0,071	-0,024
-198,548	-200,000	-0,012	-0,055
-197,533	-200,000	-0,025	-0,149
-196,519	-200,000	-0,029	0,127
-195,504	330,228	0,029	-0,040
-194,490	-200,000	0,016	-0,061
-193,475	-3,577	-0,075	-0,037
-192,460	-151,881	0,083	0,004
-191,446	-13,071	0,085	-0,039
-190,431	-74,761	0,240	-0,062
-189,417	-37,836	0,095	-0,036
-188,402	-200,000	-0,018	0,068
-187,387	175,343	-0,025	-0,026
-186,373	800,000	-0,059	-0,131
-185,358	221,817	0,082	-0,095
-184,344	267,606	0,048	-0,060
-183,329	343,045	0,094	0,133
-182,315	133,625	-0,117	-0,109
-181,300	80,224	-0,053	0,041
-180,285	-200,000	0,017	0,065
-179,271	-101,142	-0,079	-0,014
-178,256	-200,000	0,003	-0,046
-177,242	427,790	0,044	-0,069
-176,227	68,403	0,065	0,048
-175,212	84,419	0,022	0,018
-174,198	-56,441	-0,012	-0,004
-173,183	-4,562	-0,094	-0,047
-172,169	294,944	0,043	-0,057
-171,154	-200,000	-0,002	0,041
-170,139	-200,000	-0,041	-0,134
-169,125	800,000	0,029	-0,083
-168,110	-8,116	-0,101	-0,049
-167,096	21,251	-0,063	-0,037
-166,081	50,704	-0,070	-0,048
-165,066	-137,415	-0,168	-0,014
-164,052	192,064	0,077	-0,083
-163,037	-200,000	-0,017	-0,055
-162,023	800,000	0,059	0,183
-161,008	800,000	0,057	0,133
-159,993	68,578	-0,129	0,095
-158,979	-200,000	-0,023	-0,092
-157,964	-133,017	-0,104	0,009
-156,950	800,000	0,009	0,024
-155,935	86,404	-0,102	0,081
-154,920	800,000	-0,039	0,085
-153,906	108,457	0,104	0,090
-152,891	-111,226	0,127	0,018
-151,877	768,213	-0,058	-0,114
-150,862	27,467	-0,058	0,035
-149,847	800,000	0,031	-0,073
-148,833	-60,338	-0,113	-0,034
-147,818	-90,961	-0,030	0,006
-146,804	34,289	0,118	0,074
-145,789	-200,000	-0,035	0,154
-144,775	442,383	0,059	-0,094
-143,760	-200,000	-0,008	0,161
-142,745	800,000	-0,076	-0,179
-141,731	-50,148	0,106	0,036
-140,716	53,929	0,008	0,006
-139,702	-200,000	-0,017	-0,079
-138,687	-200,000	-0,031	0,111
-137,672	-134,940	-0,054	0,005
-136,658	69,528	-0,027	-0,020
-135,643	443,569	0,036	0,057
-134,629	-200,000	0,033	0,112
-133,614	24,971	-0,086	-0,051
-132,599	-200,000	0,016	0,058
-131,585	-200,000	0,010	0,110
-130,570	306,754	-0,062	0,083
-129,556	-200,000	0,007	0,103
-128,541	-26,013	-0,102	-0,043
-127,526	140,506	0,030	-0,028
-126,512	-166,816	0,183	-0,005
-125,497	-57,795	-0,092	0,029
-124,483	-27,927	-0,115	-0,047
-123,468	619,085	-0,031	0,055
-122,453	-200,000	0,006	-0,138
-121,439	189,903	-0,072	-0,078
-120,424	-39,762	0,027	0,010
-119,410	-200,000	-0,001	0,039
-118,395	800,000	0,018	0,053
-117,380	273,734	0,041	0,052
-116,366	-200,000	0,006	0,090
-115,351	-130,712	-0,150	0,014
-114,337	-200,000	0,011	-0,115
-113,322	-12,538	-0,116	0,054
-112,307	19,023	0,036	0,020
-111,293	296,230	-0,067	-0,088
-110,278	-135,836	0,063	0,005
-109,264	-200,000	0,003	0,073
-108,249	-200,000	0,016	-0,202
-107,234	83,810	0,128	-0,100
-106,220	800,000	0,042	-0,100
-105,205	-200,000	0,009	-0,057
-104,191	71,232	0,064	-0,048
-103,176	88,155	0,106	0,084
-102,162	-200,000	-0,026	-0,102
-101,147	23,188	0,062	-0,036
-100,132	-161,421	-0,134	-0,005
-99,118	-35,574	0,021	-0,008
-98,103	186,672	0,110	0,118
-97,089	36,158	0,077	0,048
-96,074	31,450	-0,033	0,021
-95,059	28,745	-0,222	0,135
-94,045	-22,406	-0,013	-0,006
-93,030	-200,000	0,009	-0,054
-92,016	166,334	-0,034	-0,035
-91,001	-15,491	0,138	-0,063
-89,986	800,000	0,026	0,060
-88,972	-23,310	0,117	0,050
-87,957	112,713	-0,068	-0,059
-86,943	-76,301	-0,165	0,041
-85,928	-200,000	-0,011	-0,044
-84,913	73,339	-0,082	-0,061
-83,899	-200,000	-0,011	0,074
-82,884	-57,611	0,080	0,025
-81,870	161,332	0,105	-0,106
-80,855	496,459	0,053	0,088
-79,840	-200,000	0,015	0,096
-78,826	20,631	-0,093	-0,054
-77,811	-130,118	-0,148	0,014
-76,797	-109,296	-0,046	-0,007
-75,782	685,465	0,051	0,095
-74,767	-200,000	0,025	-0,090
-73,753	55,734	0,078	-0,054
-72,738	-200,000	-0,016	0,162
-71,724	320,556	-0,083	-0,114
-70,709	800,000	-0,016	0,050
-69,694	22,041	-0,053	0,031
-68,680	-11,746	0,087	0,041
-67,665	576,097	0,056	0,098
-66,651	41,483	-0,101	-0,065
-65,636	226,823	0,059	0,068
-64,622	-200,000	0,011	-0,036
-63,607	70,035	-0,074	-0,055
-62,592	667,100	-0,050	0,093
-61,578	-200,000	0,003	-0,052
-60,563	243,771	0,077	-0,092
-59,549	-142,282	-0,078	-0,005
-58,534	9,794	-2,024	-1,096
-57,519	800,000	-0,237	-0,698
-56,505	-200,000	-1,291	-4,953
-55,490	186,861	0,762	0,814
-54,476	800,000	5,452	12,264
-53,461	-200,000	18,303	305,396
-52,446	800,000	737,561	2294,118
-51,432	550,183	1653,472	2850,012
-50,417	110,177	1638,873	1408,410
-49,403	73,807	1289,266	966,548
-48,388	30,596	1029,579	628,971
-47,373	19,917	992,068	570,805
-46,359	17,845	979,425	556,715
-45,344	14,505	975,672	543,625
-44,330	14,828	974,234	543,859
-43,315	14,211	972,297	540,739
-42,300	14,189	971,326	540,106
-41,286	14,174	970,282	539,456
-40,271	14,156	969,405	538,887
-39,257	14,171	968,539	538,432
-38,242	14,156	967,734	537,915
-37,227	14,176	966,800	537,441
-36,213	14,118	965,804	536,678
-35,198	14,129	964,964	536,226
-34,184	14,190	964,324	536,044
-33,169	14,140	963,157	535,214
-32,154	14,163	962,357	534,822
-31,140	14,203	961,578	534,497
-30,125	14,199	960,815	534,039
-29,111	14,153	960,008	533,422
-28,096	14,254	959,197	533,275
-27,082	14,181	958,652	532,716
-26,067	14,255	957,764	532,437
-25,052	14,197	957,069	531,846
-24,038	14,154	956,654	531,456
-23,023	14,167	955,894	531,053
-22,009	14,191	955,091	530,663
-20,994	14,162	954,633	530,294
-19,979	14,180	953,841	529,890
-18,965	14,141	953,266	529,426
-17,950	14,193	952,846	529,337
-16,936	14,107	952,120	528,640
-15,921	14,129	951,321	528,245
-14,906	14,095	950,526	527,673
-13,892	14,084	949,989	527,319
-12,877	14,075	949,459	526,975
-11,863	14,022	948,667	526,346
-10,848	14,004	948,204	526,012
-9,833	14,152	947,704	526,185
-8,819	14,162	947,029	525,822
-7,804	14,076	946,339	525,143
-6,790	14,107	945,845	524,945
-5,775	14,156	945,080	524,657
-4,760	14,114	944,637	524,256
-3,746	14,075	943,996	523,755
-2,731	13,921	943,363	522,896
-1,717	13,873	942,903	522,470
-0,702	13,948	942,137	522,260
0,313	13,802	941,250	522,097
1,327	17,095	939,093	531,236
2,342	26,264	794,397	473,642
3,356	22,854	459,423	268,686
4,371	-3,899	315,960	156,263
5,386	-7,716	297,736	143,362
6,400	-9,642	291,823	138,585
7,415	-10,251	289,151	136,702
8,429	-10,897	287,596	135,320
9,444	-10,821	286,772	134,995
10,459	-10,841	286,226	134,707
11,473	-10,667	285,363	134,458
12,488	-10,646	284,993	134,292
13,502	-10,698	284,334	133,919
14,517	-10,852	283,965	133,585
15,531	-10,994	283,402	133,170
16,546	-11,063	282,923	132,867
17,561	-10,970	282,610	132,797
18,575	-10,986	282,319	132,633
19,590	-11,174	281,819	132,206
20,604	-11,018	281,617	132,249
21,619	-11,168	281,230	131,912
22,634	-11,023	280,924	131,896
23,648	-11,144	280,565	131,600
24,663	-11,202	280,341	131,427
25,677	-11,030	280,173	131,501
26,692	-11,118	279,745	131,204
27,707	-11,090	279,390	131,053
28,721	-10,982	279,251	131,078
29,736	-11,380	278,863	130,507
30,750	-11,209	278,597	130,533
31,765	-11,281	278,481	130,398
32,780	-11,243	278,116	130,252
33,794	-11,200	277,842	130,152
34,809	-11,098	277,636	130,142
35,823	-11,011	277,140	129,979
36,838	-11,182	277,216	129,842
37,853	-11,248	276,843	129,594
38,867	-11,209	276,622	129,515
39,882	-11,122	276,359	129,462
40,896	-11,193	276,124	129,274
41,911	-11,174	275,864	129,158
42,926	-11,285	275,829	129,026
43,940	-11,166	275,371	128,913
44,955	-11,220	275,158	128,750
45,969	-11,202	274,866	128,619
46,984	-11,308	274,627	128,397
47,999	-11,151	274,614	128,526
49,013	-11,496	274,214	128,005
50,028	-11,492	273,841	127,823
51,042	-11,632	273,745	127,637
52,057	-11,273	273,440	127,817
53,071	-11,488	273,401	127,587
54,086	-11,373	273,132	127,558
55,101	-11,505	272,949	127,338
56,115	-11,240	272,702	127,458
57,130	-11,019	272,539	127,575
58,144	-11,077	272,282	127,390
59,159	-10,984	272,093	127,375
60,174	-10,736	271,860	127,485
61,188	-10,951	271,511	127,110
62,203	-11,191	271,475	126,862
63,217	-11,090	271,290	126,857
64,232	-11,038	270,950	126,734
65,247	-11,120	270,810	126,582
66,261	-10,978	270,547	126,578
67,276	-11,008	270,064	126,313
68,290	-11,205	269,972	126,079
69,305	-11,142	269,755	126,024
70,320	-11,295	269,574	125,787
71,334	-11,114	269,314	125,821
72,349	-10,974	269,189	125,879
73,363	-10,896	268,884	125,797
74,378	-11,095	268,691	125,514
75,393	-10,926	268,503	125,568
76,407	-11,124	268,332	125,297
77,422	-10,754	268,000	125,468
78,436	-10,975	267,812	125,167
79,451	-11,075	267,682	125,005
80,466	-10,985	267,325	124,909
81,480	-11,308	267,042	124,473
82,495	-11,110	266,892	124,571
83,509	-11,065	266,669	124,496
84,524	-11,091	266,506	124,386
85,539	-11,333	266,325	124,071
86,553	-10,989	266,135	124,282
87,568	-11,088	265,934	124,088
88,582	-11,127	265,764	123,963
89,597	-11,199	265,557	123,790
90,611	-11,162	265,408	123,743
91,626	-10,959	265,115	123,778
92,641	-11,056	265,060	123,653
93,655	-11,224	264,745	123,345
94,670	-11,034	264,400	123,343
95,684	-11,032	264,400	123,334
96,699	-11,286	264,174	122,990
97,714	-11,109	264,088	123,098
98,728	-11,168	263,700	122,853
99,743	-11,302	263,532	122,645
100,757	-11,115	263,133	122,615
101,772	-11,068	263,090	122,625
102,787	-10,970	262,768	122,552
103,801	-11,036	262,679	122,440
104,816	-10,893	262,430	122,440
105,830	-10,897	262,390	122,408
106,845	-11,066	262,188	122,152
107,860	-11,025	262,035	122,107
108,874	-10,873	261,752	122,098
109,889	-10,916	261,544	121,953
110,903	-10,980	261,399	121,817
111,918	-10,987	261,205	121,710
112,933	-11,034	260,834	121,484
113,947	-10,835	260,744	121,608
114,962	-10,892	260,560	121,461
115,976	-10,907	260,394	121,359
116,991	-11,022	260,219	121,166
118,006	-10,969	259,887	121,047
119,020	-11,011	259,815	120,965
120,035	-10,914	259,607	120,943
121,049	-10,931	259,465	120,851
122,064	-10,843	259,285	120,834
123,079	-10,942	259,057	120,630
124,093	-11,033	258,909	120,470
125,108	-10,907	258,613	120,433
126,122	-11,161	258,488	120,141
127,137	-11,340	258,394	119,931
128,151	-11,068	258,123	120,031
129,166	-11,108	257,879	119,872
130,181	-11,090	257,619	119,757
131,195	-11,152	257,540	119,655
132,210	-10,973	257,321	119,699
133,224	-10,911	257,186	119,679
134,239	-10,964	257,060	119,563
135,254	-10,970	256,907	119,476
136,268	-10,877	256,647	119,426
137,283	-11,143	256,307	119,026
138,297	-11,227	256,174	118,882
139,312	-11,131	255,948	118,849
140,327	-10,997	255,648	118,815
141,341	-10,954	255,614	118,825
142,356	-10,924	255,521	118,798
143,370	-10,824	255,339	118,788
144,385	-10,689	255,192	118,826
145,400	-10,787	254,969	118,627
146,414	-10,801	254,755	118,505
147,429	-11,067	254,438	118,118
148,443	-10,776	254,211	118,252
149,458	-10,899	254,185	118,124
150,473	-10,822	253,878	118,037
151,487	-10,914	253,636	117,835
152,502	-10,869	253,590	117,841
153,516	-10,907	253,369	117,696
154,531	-10,710	253,206	117,778
155,546	-10,872	253,054	117,559
156,560	-10,917	252,972	117,472
157,575	-10,926	252,663	117,310
158,589	-10,905	252,481	117,232
159,604	-10,978	252,112	116,989
160,619	-10,768	252,095	117,149
161,633	-10,787	251,980	117,069
162,648	-10,886	251,856	116,917
163,662	-10,900	251,653	116,800
164,677	-10,689	251,498	116,897
165,692	-10,769	251,137	116,651
166,706	-10,891	251,137	116,538
167,721	-10,822	250,926	116,487
168,735	-10,951	250,852	116,334
169,750	-10,607	250,732	116,558
170,764	-10,841	250,524	116,253
171,779	-10,698	250,347	116,282
172,794	-10,650	250,282	116,282
173,808	-10,795	250,019	116,027
174,823	-10,966	249,701	115,725
175,837	-11,173	249,580	115,485
176,852	-10,716	249,357	115,754
177,867	-10,827	249,445	115,692
178,881	-10,822	249,163	115,555
179,896	-10,606	248,997	115,649
180,910	-10,709	248,827	115,474
181,925	-10,833	248,542	115,227
182,940	-10,532	248,511	115,454
183,954	-10,544	248,257	115,316
184,969	-10,683	248,188	115,157
185,983	-10,713	247,852	114,966
186,998	-10,603	247,737	114,994
188,013	-10,662	247,667	114,902
189,027	-10,518	247,497	114,934
190,042	-10,501	247,155	114,778
191,056	-10,531	247,004	114,673
192,071	-10,627	246,884	114,527
193,086	-10,636	246,764	114,454
194,100	-10,567	246,634	114,441
195,115	-10,381	246,295	114,427
196,129	-10,358	246,062	114,327
197,144	-10,567	245,968	114,101
198,159	-10,776	245,835	113,856
199,173	-10,633	245,678	113,891
200,188	-10,616	245,371	113,753
201,202	-10,730	245,229	113,584
202,217	-11,029	245,077	113,257
203,232	-10,869	244,702	113,205
204,246	-10,600	244,992	113,550
205,261	-9,624	244,912	114,305
206,275	-9,583	244,764	114,259
207,290	-8,089	245,218	115,690
208,304	-4,939	246,253	118,765
209,319	-2,650	246,750	120,883
210,334	-2,018	246,869	121,453
211,348	-1,632	247,079	121,863
212,363	-0,970	246,771	122,246
213,377	-0,566	247,056	122,710
214,392	0,060	246,707	123,040
215,407	-0,149	246,597	122,803
216,421	-0,295	246,408	122,578
217,436	-0,354	246,296	122,462
218,450	-0,333	246,059	122,351
219,465	-0,345	246,003	122,302
220,480	-0,284	245,686	122,184
221,494	-0,304	245,667	122,147
222,509	-0,328	245,470	122,019
223,523	-0,397	245,346	121,890
224,538	-0,633	245,165	121,596
225,553	-0,519	245,054	121,623
226,567	-0,523	244,963	121,564
227,582	-0,497	244,776	121,482
228,596	-0,348	244,442	121,426
229,611	-0,517	244,600	121,357
230,626	-0,450	244,183	121,193
231,640	-0,449	244,062	121,123
232,655	-0,497	243,824	120,955
233,669	-0,406	243,559	120,887
234,684	-0,517	243,579	120,796
235,699	-0,469	243,431	120,751
236,713	-0,577	243,275	120,575
237,728	-0,717	243,039	120,334
238,742	-0,503	242,911	120,433
239,757	-0,650	242,778	120,238
240,772	-0,398	242,374	120,229
241,786	-0,353	242,215	120,176
242,801	-0,717	242,279	119,904
243,815	-0,569	242,110	119,929
244,830	-0,437	242,010	119,975
245,844	-0,343	241,840	119,956
246,859	-0,326	241,626	119,852
247,874	-0,515	241,292	119,524
248,888	-0,586	241,334	119,478
249,903	-0,249	241,273	119,707
250,917	-0,269	241,160	119,624
251,932	-0,187	240,763	119,482
252,947	-0,451	240,653	119,206
253,961	-0,616	240,483	118,979
254,976	-0,328	240,303	119,110
255,990	-0,289	240,119	119,039
257,005	-0,526	240,008	118,784
258,020	-0,584	239,891	118,670
259,034	-0,510	239,753	118,650
260,049	-0,371	239,621	118,684
261,063	-0,478	239,376	118,467
262,078	-0,502	239,214	118,357
263,093	-0,459	239,020	118,285
264,107	-0,453	239,007	118,273
265,122	-0,464	238,766	118,134
266,136	-0,338	238,720	118,201
267,151	-0,303	238,741	118,228
268,166	-0,299	238,321	118,013
269,180	-0,523	238,229	117,780
270,195	-0,005	238,100	118,115
271,209	-0,307	237,966	117,799
272,224	-0,560	237,708	117,462
273,239	-0,504	237,539	117,412
274,253	-0,564	237,438	117,304
275,268	-0,543	237,319	117,251
276,282	-0,351	237,177	117,322
277,297	-0,470	236,878	117,070
278,312	-0,548	236,805	116,962
279,326	-0,553	236,748	116,920
280,341	-0,617	236,549	116,761
281,355	-0,411	236,376	116,827
282,370	-0,295	236,220	116,830
283,384	-0,328	236,146	116,757
284,399	-0,345	235,881	116,602
285,414	-0,358	235,626	116,456
286,428	-0,425	235,660	116,410
287,443	-0,162	235,458	116,505
288,457	-0,174	235,369	116,441
289,472	-0,507	235,272	116,123
290,487	-0,429	234,994	116,036
291,501	-0,462	234,790	115,899
292,516	-0,455	234,623	115,812
293,530	-0,393	234,505	115,792
294,545	-0,388	234,423	115,745
295,560	-0,140	234,423	115,927
296,574	-0,457	234,212	115,566
297,589	-0,259	233,903	115,557
298,603	-0,418	233,926	115,435
299,618	-0,027	233,786	115,658
300,633	-0,179	233,685	115,480
301,647	-0,181	233,515	115,385
302,662	0,037	233,304	115,438
303,676	0,021	233,255	115,392
304,691	-0,218	232,924	115,033
305,706	-0,064	232,878	115,119
306,720	-0,274	232,697	114,857
307,735	-0,235	232,470	114,766
308,749	-0,414	232,377	114,571
309,764	-0,403	232,360	114,562
310,779	-0,323	231,892	114,381
311,793	-0,101	231,666	114,430
312,808	-0,283	231,649	114,272
313,822	-0,262	231,504	114,206
314,837	-0,369	231,436	114,080
315,852	-0,256	231,397	114,138
316,866	0,053	231,195	114,264
317,881	0,021	231,123	114,194
318,895	0,145	230,969	114,203
319,910	0,011	230,888	114,050
320,925	-0,043	230,587	113,850
321,939	-0,132	230,410	113,685
322,954	-0,145	230,398	113,658
323,968	-0,002	230,180	113,650
324,983	-0,053	229,963	113,494
325,997	0,044	229,870	113,511
327,012	-0,001	229,768	113,417
328,027	-0,112	229,625	113,252
329,041	0,189	229,339	113,329
330,056	0,151	229,389	113,314
331,070	-0,025	229,196	113,076
332,085	0,073	228,976	113,031
333,100	0,045	228,872	112,949
334,114	-0,015	228,856	112,885
335,129	-0,244	228,626	112,589
336,143	0,104	228,540	112,799
337,158	0,177	228,148	112,651
338,173	0,242	228,174	112,702
339,187	0,058	227,933	112,435
340,202	0,132	227,867	112,448
341,216	0,066	227,738	112,325
342,231	0,028	227,608	112,222
343,246	-0,006	227,400	112,084
344,260	-0,034	227,331	112,019
345,275	0,196	227,131	112,083
346,289	0,327	227,070	112,141
347,304	0,055	226,868	111,827
348,319	0,320	226,810	111,987
349,333	0,140	226,590	111,734
350,348	0,239	226,370	111,689
351,362	0,177	226,182	111,540
352,377	0,184	226,041	111,466
353,392	0,070	225,907	111,306
354,406	0,263	225,827	111,400
355,421	197,904	1317,728	1398,246
356,435	158,748	1450,723	1398,228
