DTS Sentinel unit serial number:	SN410029Multiplexer serial number:	ORYXHardware model number:	OX2-SRSoftware version number:	ORYX F/W v4,00 Oryx Data Collector v3.7.2.0data status	okinstallation	B5 Nyhavnadifferential loss correction	single-endedforward channel	channel 2reverse channel	N/Adate	2023/12/13time	07:32:13forward acquisition time	300,00reverse acquisition time	0,00gamma	499,1914k internal	0,3160k external	0,3160temperature offset calibration	1,0000default loss term (dB/km)	0,3820temperature slope calibration	1,0000multiplexer offset coefficient	1,0000multiplexer slope coefficient	1,0000fibre end	0,00T internal ref (°C)	13,69T ext. ref 1 (°C)	-2,73T ext. ref 2 (°C)	-3,02length (m)	temperature (°C)	Stokes	anti-Stokes-744,400	-129,095	0,027	-0,003
-743,385	-89,748	-0,213	-0,046
-742,371	88,725	0,162	0,133
-741,356	-166,198	-0,225	-0,007
-740,342	-0,416	0,133	0,069
-739,327	-153,161	-0,201	0,010
-738,312	-133,264	0,071	0,007
-737,298	-196,323	-0,315	0,002
-736,283	245,408	0,030	0,037
-735,269	-95,827	-0,251	-0,049
-734,254	-88,741	-0,071	0,015
-733,239	-42,964	-0,564	-0,210
-732,225	-146,970	0,182	-0,011
-731,210	67,686	-0,101	-0,076
-730,196	-200,000	-0,029	-0,126
-729,181	-15,319	-0,057	0,027
-728,167	-200,000	0,005	-0,128
-727,152	800,000	-0,059	0,165
-726,137	-93,870	-0,144	0,029
-725,123	54,810	-0,141	0,100
-724,108	800,000	-0,036	-0,111
-723,094	-200,000	-0,010	-0,213
-722,079	20,396	-0,041	0,024
-721,064	-69,060	0,088	0,025
-720,050	45,740	-0,073	-0,049
-719,035	247,083	-0,106	0,132
-718,021	287,327	-0,084	-0,112
-717,006	800,000	-0,048	-0,149
-715,991	800,000	-0,070	-0,208
-714,977	26,639	0,077	0,047
-713,962	-200,000	-0,045	-0,147
-712,948	11,637	0,060	0,034
-711,933	-200,000	-0,011	-0,067
-710,918	-30,692	-0,062	0,026
-709,904	-200,000	0,019	-0,114
-708,889	128,844	-0,146	-0,137
-707,875	328,626	0,009	-0,012
-706,860	86,014	-0,076	0,062
-705,845	-170,692	-0,033	-0,001
-704,831	-47,996	0,081	0,029
-703,816	165,994	-0,047	-0,049
-702,802	-105,060	-0,098	-0,016
-701,787	146,190	-0,023	-0,023
-700,772	-200,000	0,024	-0,139
-699,758	-104,209	-0,093	-0,016
-698,743	23,212	0,131	0,079
-697,729	-182,305	0,140	0,002
-696,714	252,932	0,059	0,074
-695,699	-200,000	-0,003	-0,042
-694,685	-200,000	-0,017	0,070
-693,670	-200,000	0,027	-0,117
-692,656	-144,014	-0,173	-0,012
-691,641	-200,000	-0,012	0,160
-690,627	800,000	-0,064	0,145
-689,612	-42,657	-0,056	0,021
-688,597	-200,000	-0,005	0,090
-687,583	70,590	-0,133	-0,101
-686,568	-200,000	0,013	-0,077
-685,554	-32,591	0,082	-0,033
-684,539	-200,000	-0,001	-0,009
-683,524	-200,000	0,008	-0,045
-682,510	107,521	-0,107	0,093
-681,495	79,848	-0,062	0,049
-680,481	-200,000	-0,011	-0,223
-679,466	-62,897	-0,095	-0,029
-678,451	191,959	0,023	0,026
-677,437	-177,907	0,067	-0,001
-676,422	-56,935	0,154	-0,050
-675,408	-176,848	-0,085	0,002
-674,393	-168,321	-0,172	0,005
-673,378	-19,357	-0,006	0,003
-672,364	50,027	0,049	0,034
-671,349	76,040	-0,103	-0,080
-670,335	-200,000	-0,001	0,016
-669,320	405,920	-0,083	0,129
-668,305	180,394	-0,084	0,090
-667,291	-200,000	-0,020	0,000
-666,276	-44,887	-0,036	-0,013
-665,262	-74,677	-0,127	-0,033
-664,247	524,788	-0,001	0,002
-663,232	-60,747	-0,136	0,042
-662,218	79,455	0,038	-0,030
-661,203	636,688	-0,052	-0,097
-660,189	44,532	-0,074	0,050
-659,174	71,509	-0,077	-0,059
-658,159	-11,875	-0,080	-0,038
-657,145	-32,770	-0,064	0,026
-656,130	-145,944	0,094	-0,006
-655,116	-200,000	0,027	-0,120
-654,101	36,365	-0,013	0,009
-653,086	98,827	0,037	-0,031
-652,072	228,807	-0,046	0,055
-651,057	-200,000	-0,004	-0,042
-650,043	-200,000	0,002	0,094
-649,028	292,743	0,034	-0,045
-648,014	219,158	-0,066	0,077
-646,999	-149,014	0,051	-0,003
-645,984	-83,252	-0,142	0,033
-644,970	2,283	-0,091	-0,048
-643,955	391,923	-0,039	-0,060
-642,941	324,988	-0,047	-0,066
-641,926	800,000	0,033	-0,070
-640,911	800,000	-0,059	-0,168
-639,897	800,000	0,044	-0,124
-638,882	180,010	0,032	0,034
-637,868	800,000	-0,017	0,046
-636,853	-122,791	0,053	-0,006
-635,838	-29,505	-0,122	-0,051
-634,824	-126,439	0,094	0,010
-633,809	800,000	-0,038	-0,095
-632,795	-39,744	0,038	-0,015
-631,780	-200,000	-0,017	-0,163
-630,765	14,897	0,072	0,041
-629,751	37,522	-0,111	-0,072
-628,736	126,576	-0,093	0,086
-627,722	34,410	0,119	0,076
-626,707	-200,000	0,027	-0,103
-625,692	800,000	0,052	0,138
-624,678	-200,000	-0,006	-0,033
-623,663	800,000	0,007	0,020
-622,649	-200,000	-0,015	0,100
-621,634	313,784	-0,062	-0,085
-620,619	-113,344	-0,123	-0,017
-619,605	-200,000	0,015	-0,067
-618,590	10,074	0,103	0,057
-617,576	385,808	0,022	-0,034
-616,561	93,438	-0,018	0,015
-615,546	-16,082	-0,099	-0,046
-614,532	377,821	-0,104	-0,156
-613,517	371,805	-0,111	-0,166
-612,503	-36,682	0,118	-0,046
-611,488	-67,232	0,101	-0,029
-610,474	-200,000	0,021	-0,087
-609,459	-200,000	0,030	0,110
-608,444	273,904	-0,022	0,028
-607,430	101,352	-0,109	-0,093
-606,415	33,591	-0,089	0,057
-605,401	-200,000	-0,026	-0,106
-604,386	-69,180	0,040	0,011
-603,371	252,650	0,051	0,064
-602,357	-200,000	-0,006	-0,050
-601,342	-114,275	0,063	-0,009
-600,328	-200,000	0,021	-0,103
-599,313	-200,000	-0,046	-0,195
-598,298	-200,000	-0,001	0,020
-597,284	800,000	-0,060	-0,137
-596,269	-166,513	0,186	-0,006
-595,255	-200,000	-0,029	0,106
-594,240	-1,704	0,069	0,035
-593,225	-200,000	-0,002	-0,109
-592,211	-200,000	0,004	-0,017
-591,196	-200,000	0,016	0,143
-590,182	-127,158	-0,082	-0,009
-589,167	593,431	-0,032	0,058
-588,152	800,000	-0,017	0,035
-587,138	113,352	0,093	-0,083
-586,123	78,873	-0,021	0,017
-585,109	-134,438	-0,143	0,013
-584,094	-2,360	-0,051	-0,026
-583,079	346,604	0,034	0,049
-582,065	-200,000	-0,043	0,171
-581,050	-200,000	-0,005	0,103
-580,036	506,240	-0,059	-0,100
-579,021	545,809	-0,036	0,063
-578,006	800,000	-0,033	-0,102
-576,992	294,231	-0,058	-0,078
-575,977	250,664	0,072	-0,089
-574,963	800,000	0,065	-0,138
-573,948	174,666	-0,031	-0,033
-572,934	-145,105	-0,178	-0,012
-571,919	442,924	-0,049	-0,078
-570,904	800,000	-0,019	-0,060
-569,890	154,656	-0,054	0,054
-568,875	29,991	-0,096	-0,060
-567,861	-200,000	0,022	0,132
-566,846	207,838	-0,018	-0,021
-565,831	-9,288	-0,070	0,034
-564,817	-200,000	-0,013	-0,069
-563,802	50,842	-0,097	-0,067
-562,788	-188,648	0,119	-0,001
-561,773	-200,000	0,006	-0,051
-560,758	482,102	0,117	0,196
-559,744	117,045	0,087	-0,078
-558,729	-17,200	0,043	0,020
-557,715	-200,000	0,003	-0,030
-556,700	-0,006	-0,065	0,034
-555,685	-80,510	-0,065	-0,016
-554,671	-200,000	0,010	0,048
-553,656	-106,006	0,142	-0,023
-552,642	-200,000	0,008	-0,036
-551,627	-200,000	0,070	-0,000
-550,612	-60,424	0,107	0,033
-549,598	27,447	-0,080	-0,049
-548,583	6,697	-0,168	0,091
-547,569	-176,084	0,070	0,001
-546,554	18,062	-0,020	0,012
-545,539	-106,176	0,020	0,003
-544,525	409,981	-0,058	0,091
-543,510	44,777	-0,124	0,083
-542,496	83,634	-0,048	-0,038
-541,481	32,664	0,061	0,038
-540,466	-200,000	-0,002	0,065
-539,452	36,725	0,059	-0,038
-538,437	800,000	0,060	-0,146
-537,423	800,000	0,013	0,030
-536,408	-134,382	0,149	-0,013
-535,393	211,256	-0,063	0,072
-534,379	122,940	-0,033	0,030
-533,364	-140,105	-0,154	0,012
-532,350	-200,000	-0,023	-0,081
-531,335	-98,855	0,042	-0,008
-530,321	446,611	0,024	-0,039
-529,306	243,916	0,026	-0,031
-528,291	-151,081	0,047	-0,003
-527,277	-24,151	-0,048	0,021
-526,262	-125,924	-0,058	-0,006
-525,248	-97,470	-0,062	-0,012
-524,233	-200,000	0,026	0,162
-523,218	742,262	-0,047	-0,093
-522,204	800,000	0,006	-0,013
-521,189	800,000	0,021	0,052
-520,175	125,482	0,088	0,081
-519,160	23,746	-0,064	-0,039
-518,145	-200,000	-0,001	-0,022
-517,131	113,094	-0,086	0,076
-516,116	-67,101	0,048	0,014
-515,102	-70,263	-0,032	-0,009
-514,087	-200,000	-0,019	0,114
-513,072	-96,446	0,101	-0,019
-512,058	-200,000	0,007	-0,032
-511,043	550,377	-0,072	0,126
-510,029	21,151	0,086	0,051
-509,014	-200,000	0,026	0,200
-507,999	-14,240	0,057	0,027
-506,985	585,113	-0,072	-0,130
-505,970	537,313	-0,031	0,055
-504,956	-54,185	0,075	-0,025
-503,941	-200,000	-0,003	-0,077
-502,926	800,000	-0,029	0,091
-501,912	-37,161	0,189	-0,074
-500,897	243,186	0,088	-0,108
-499,883	420,317	-0,044	-0,069
-498,868	800,000	0,049	-0,122
-497,853	191,830	0,038	0,042
-496,839	-94,447	-0,192	-0,038
-495,824	-200,000	0,022	0,080
-494,810	-113,978	0,072	0,010
-493,795	800,000	0,017	0,049
-492,781	800,000	0,023	0,063
-491,766	-21,534	-0,145	-0,064
-490,751	-200,000	-0,041	-0,166
-489,737	191,631	-0,034	0,038
-488,722	-41,301	-0,102	0,038
-487,708	35,980	0,102	0,065
-486,693	800,000	0,030	0,076
-485,678	800,000	-0,016	0,032
-484,664	800,000	-0,042	-0,093
-483,649	124,584	-0,103	0,094
-482,635	-38,637	-0,062	0,024
-481,620	367,863	-0,044	0,065
-480,605	-15,422	0,188	0,087
-479,591	-34,346	0,199	0,079
-478,576	-4,051	-0,092	0,047
-477,562	331,614	-0,073	0,104
-476,547	800,000	0,047	-0,113
-475,532	-200,000	0,004	-0,055
-474,518	-21,544	-0,088	-0,039
-473,503	162,175	0,110	-0,113
-472,489	-200,000	-0,019	0,099
-471,474	-102,444	0,044	0,008
-470,459	-130,340	-0,047	0,005
-469,445	114,978	-0,123	-0,110
-468,430	-115,425	0,083	-0,011
-467,416	-200,000	-0,006	-0,021
-466,401	73,219	0,077	-0,059
-465,386	-200,000	0,017	0,174
-464,372	-130,214	-0,094	0,009
-463,357	107,933	-0,118	0,102
-462,343	-18,182	-0,104	-0,047
-461,328	-164,896	-0,080	-0,003
-460,313	6,880	0,077	0,042
-459,299	-107,171	0,126	0,020
-458,284	-194,342	0,195	0,001
-457,270	-146,849	0,118	-0,007
-456,255	85,618	-0,024	-0,019
-455,241	244,099	0,064	-0,079
-454,226	800,000	0,036	0,080
-453,211	91,070	-0,022	0,018
-452,197	-86,816	-0,079	0,018
-451,182	-85,810	0,137	0,031
-450,168	142,993	0,057	0,055
-449,153	180,080	-0,098	-0,105
-448,138	-200,000	-0,005	-0,108
-447,124	522,894	0,051	0,087
-446,109	800,000	0,009	0,026
-445,095	-89,687	0,167	-0,035
-444,080	-139,329	0,103	-0,008
-443,065	-133,499	0,049	-0,004
-442,051	73,985	-0,122	-0,093
-441,036	9,453	0,044	-0,024
-440,022	146,320	-0,117	0,115
-439,007	-91,749	0,126	0,026
-437,992	800,000	0,011	-0,031
-436,978	800,000	0,056	0,140
-435,963	-0,178	0,086	-0,044
-434,949	-200,000	0,021	0,100
-433,934	153,728	0,018	0,018
-432,919	-114,946	-0,053	-0,007
-431,905	-200,000	-0,009	-0,038
-430,890	-200,000	-0,011	0,128
-429,876	800,000	0,009	-0,027
-428,861	-118,874	-0,042	-0,005
-427,846	-71,467	-0,103	0,028
-426,832	523,160	0,067	0,114
-425,817	800,000	0,043	0,091
-424,803	442,293	-0,054	-0,087
-423,788	530,007	0,062	-0,108
-422,773	-121,554	-0,104	-0,012
-421,759	800,000	0,017	-0,038
-420,744	56,522	-0,121	-0,086
-419,730	759,600	-0,051	-0,101
-418,715	9,644	-0,217	0,119
-417,701	30,664	0,051	0,032
-416,686	97,967	0,030	-0,025
-415,671	-200,000	0,012	-0,087
-414,657	-188,410	-0,069	-0,001
-413,642	-200,000	-0,036	0,127
-412,628	-200,000	-0,012	-0,040
-411,613	800,000	0,060	-0,136
-410,598	592,124	0,053	-0,096
-409,584	315,981	0,065	-0,089
-408,569	91,109	-0,061	-0,049
-407,555	370,879	0,108	0,160
-406,540	53,085	0,065	0,045
-405,525	140,225	0,059	-0,056
-404,511	-72,240	-0,139	-0,037
-403,496	231,992	0,064	0,077
-402,482	800,000	0,048	-0,116
-401,467	48,943	0,134	0,091
-400,452	-4,927	-0,040	0,020
-399,438	-140,268	0,075	0,006
-398,423	581,608	-0,029	-0,052
-397,409	378,940	-0,056	-0,083
-396,394	-186,089	0,034	0,000
-395,379	6,681	-0,065	0,035
-394,365	-71,592	-0,070	-0,019
-393,350	-87,056	-0,112	0,025
-392,336	263,805	0,049	0,062
-391,321	169,624	0,025	-0,026
-390,306	-200,000	-0,041	-0,281
-389,292	-73,836	0,034	-0,009
-388,277	119,879	-0,128	0,116
-387,263	800,000	-0,026	0,073
-386,248	-42,012	0,062	0,023
-385,233	105,902	0,022	0,019
-384,219	31,609	0,104	-0,065
-383,204	800,000	0,040	-0,112
-382,190	800,000	-0,044	-0,138
-381,175	800,000	0,013	-0,026
-380,160	-37,759	0,041	0,016
-379,146	67,712	-0,031	0,023
-378,131	538,397	0,034	0,059
-377,117	-84,335	-0,068	-0,016
-376,102	-200,000	-0,017	-0,127
-375,088	15,495	-0,049	-0,028
-374,073	-200,000	0,013	0,050
-373,058	580,100	-0,032	0,057
-372,044	-129,503	0,039	0,004
-371,029	102,036	0,104	0,088
-370,015	-111,980	-0,179	-0,026
-369,000	-15,034	0,062	0,029
-367,985	-63,709	-0,136	0,040
-366,971	-146,705	-0,056	0,003
-365,956	-200,000	-0,020	0,148
-364,942	-79,596	0,045	0,011
-363,927	-27,676	0,022	-0,009
-362,912	-200,000	0,018	-0,093
-361,898	800,000	0,038	-0,077
-360,883	-200,000	-0,019	-0,113
-359,869	129,539	-0,045	0,041
-358,854	-101,686	0,062	-0,011
-357,839	800,000	0,042	-0,092
-356,825	800,000	0,008	-0,024
-355,810	13,647	-0,089	-0,050
-354,796	-200,000	0,000	0,026
-353,781	-15,532	-0,116	-0,054
-352,766	-200,000	0,019	0,119
-351,752	-110,348	0,126	-0,019
-350,737	30,722	0,087	-0,054
-349,723	-72,864	0,023	0,006
-348,708	-200,000	0,006	0,130
-347,693	-200,000	-0,011	0,088
-346,679	24,389	-0,168	0,101
-345,664	-39,936	-0,063	0,024
-344,650	77,354	-0,033	-0,026
-343,635	27,762	-0,040	-0,024
-342,620	129,728	-0,025	0,024
-341,606	-71,557	0,085	0,023
-340,591	407,415	-0,077	0,118
-339,577	-136,806	-0,025	-0,002
-338,562	-200,000	-0,004	0,025
-337,548	86,355	-0,040	-0,032
-336,533	-60,803	-0,068	-0,021
-335,518	-200,000	0,009	0,089
-334,504	81,256	-0,024	-0,019
-333,489	-83,129	0,128	-0,030
-332,475	13,636	-0,133	-0,074
-331,460	800,000	-0,016	-0,035
-330,445	-200,000	-0,002	0,049
-329,431	-55,156	0,042	-0,013
-328,416	-200,000	-0,006	-0,080
-327,402	8,777	0,124	-0,067
-326,387	177,379	0,107	-0,113
-325,372	-46,517	0,114	-0,040
-324,358	589,772	-0,033	0,060
-323,343	6,008	0,057	0,030
-322,329	128,062	0,054	0,050
-321,314	-51,747	-0,195	0,065
-320,299	800,000	-0,024	0,060
-319,285	800,000	0,033	0,099
-318,270	103,050	0,071	-0,061
-317,256	-200,000	-0,024	-0,092
-316,241	0,818	-0,110	-0,057
-315,226	-200,000	0,014	0,109
-314,212	486,025	0,066	0,110
-313,197	683,397	0,054	0,103
-312,183	-62,661	0,108	0,032
-311,168	65,639	-0,036	-0,027
-310,153	-13,880	0,097	-0,045
-309,139	800,000	-0,024	-0,057
-308,124	800,000	-0,049	0,142
-307,110	-143,222	0,078	0,005
-306,095	-200,000	0,009	-0,066
-305,080	164,317	0,080	-0,082
-304,066	118,908	-0,076	0,068
-303,051	431,444	0,037	-0,059
-302,037	178,019	0,046	0,049
-301,022	3,997	0,046	0,024
-300,008	122,826	-0,020	-0,018
-298,993	239,398	0,028	0,034
-297,978	-103,712	-0,053	-0,009
-296,964	151,285	-0,097	-0,096
-295,949	800,000	0,043	-0,097
-294,935	-80,009	-0,095	-0,023
-293,920	-200,000	0,024	0,089
-292,905	-123,904	0,119	0,013
-291,891	110,024	-0,010	-0,009
-290,876	49,751	-0,061	-0,042
-289,862	-200,000	0,014	-0,121
-288,847	15,222	-0,103	0,059
-287,832	-50,044	-0,059	0,020
-286,818	-127,462	-0,106	-0,011
-285,803	26,667	0,089	0,054
-284,789	236,161	-0,024	0,029
-283,774	-40,544	-0,035	0,013
-282,759	-200,000	-0,034	-0,149
-281,745	417,816	-0,095	-0,148
-280,730	728,024	0,040	0,078
-279,716	156,570	-0,021	0,021
-278,701	-195,357	0,027	0,000
-277,686	336,833	0,081	0,114
-276,672	-200,000	-0,002	0,054
-275,657	48,013	0,081	0,055
-274,643	348,329	0,098	-0,141
-273,628	75,715	0,081	-0,062
-272,613	691,168	0,033	-0,063
-271,599	800,000	-0,026	0,061
-270,584	800,000	-0,028	0,090
-269,570	550,830	-0,074	0,129
-268,555	528,088	-0,061	0,104
-267,540	-10,992	-0,083	0,040
-266,526	800,000	0,018	-0,039
-265,511	-200,000	0,009	-0,164
-264,497	-49,653	-0,093	0,032
-263,482	352,719	0,059	0,085
-262,467	-200,000	0,014	0,065
-261,453	225,125	-0,073	0,086
-260,438	-185,225	0,102	0,001
-259,424	130,240	-0,051	-0,047
-258,409	-89,257	-0,154	0,033
-257,395	-200,000	0,012	-0,066
-256,380	525,175	0,034	0,059
-255,365	386,039	0,083	0,124
-254,351	173,034	0,066	-0,069
-253,336	-103,898	0,127	0,021
-252,322	66,696	0,028	0,020
-251,307	-50,930	-0,135	-0,046
-250,292	73,442	-0,100	0,076
-249,278	-134,103	0,106	-0,009
-248,263	-200,000	-0,011	0,125
-247,249	515,811	0,037	-0,063
-246,234	-60,233	-0,048	0,015
-245,219	-23,515	-0,093	-0,040
-244,205	800,000	-0,039	0,105
-243,190	-197,195	0,041	-0,000
-242,176	321,749	0,035	0,049
-241,161	-92,746	-0,056	0,011
-240,146	113,115	0,054	-0,047
-239,132	130,305	-0,084	-0,077
-238,117	794,901	-0,060	-0,119
-237,103	55,069	-0,064	-0,044
-236,088	35,809	0,041	0,026
-235,073	-200,000	-0,002	-0,053
-234,059	800,000	-0,035	0,095
-233,044	-200,000	-0,012	0,154
-232,030	-200,000	-0,024	-0,078
-231,015	-200,000	-0,007	0,114
-230,000	-98,017	0,046	0,008
-228,986	28,151	0,097	0,059
-227,971	498,218	0,020	0,033
-226,957	77,850	0,071	-0,055
-225,942	135,684	-0,064	-0,060
-224,927	-200,000	0,019	-0,113
-223,913	66,106	-0,083	-0,061
-222,898	35,883	-0,148	0,094
-221,884	457,717	0,085	0,137
-220,869	323,616	-0,020	0,028
-219,855	19,754	0,088	0,051
-218,840	800,000	0,045	-0,120
-217,825	800,000	0,029	-0,090
-216,811	-200,000	0,002	0,008
-215,796	-3,386	-0,022	0,011
-214,782	-200,000	-0,007	0,037
-213,767	62,872	-0,099	0,072
-212,752	800,000	0,050	0,128
-211,738	-200,000	-0,032	0,143
-210,723	-151,190	0,081	-0,004
-209,709	-60,859	-0,087	0,026
-208,694	248,668	0,024	-0,030
-207,679	800,000	0,045	-0,127
-206,665	800,000	0,035	0,094
-205,650	113,783	0,118	-0,104
-204,636	-67,545	-0,093	0,026
-203,621	-200,000	-0,009	0,088
-202,606	800,000	-0,023	-0,066
-201,592	-60,171	0,031	-0,009
-200,577	38,633	-0,087	0,056
-199,563	-59,082	-0,027	-0,008
-198,548	251,047	0,071	-0,088
-197,533	-200,000	-0,001	-0,166
-196,519	-200,000	0,011	-0,051
-195,504	-144,077	-0,064	0,004
-194,490	-200,000	-0,028	-0,122
-193,475	114,042	0,119	-0,104
-192,460	68,622	-0,167	0,123
-191,446	-183,896	-0,034	-0,000
-190,431	-158,883	-0,066	-0,003
-189,417	-42,836	0,252	-0,092
-188,402	-96,628	-0,103	-0,019
-187,387	-200,000	-0,018	-0,092
-186,373	-107,179	-0,165	-0,026
-185,358	800,000	0,019	0,038
-184,344	5,969	0,060	-0,032
-183,329	14,173	0,054	0,030
-182,315	-15,900	0,130	-0,059
-181,300	194,280	0,089	0,098
-180,285	218,549	0,073	-0,085
-179,271	-30,462	0,083	0,034
-178,256	-77,257	-0,108	-0,027
-177,242	-66,774	0,115	-0,033
-176,227	800,000	0,032	-0,083
-175,212	317,645	-0,046	0,063
-174,198	-200,000	0,064	0,229
-173,183	-200,000	-0,001	-0,071
-172,169	-200,000	0,013	-0,125
-171,154	800,000	0,033	-0,094
-170,139	-200,000	-0,016	0,115
-169,125	-103,303	0,093	-0,016
-168,110	163,555	0,182	0,185
-167,096	260,241	-0,065	0,082
-166,081	124,259	-0,148	-0,134
-165,066	-145,770	-0,127	0,008
-164,052	126,661	0,045	0,041
-163,037	-28,228	0,100	-0,042
-162,023	71,305	0,107	-0,080
-161,008	-200,000	0,035	0,127
-159,993	800,000	0,045	0,137
-158,979	-93,209	-0,077	0,015
-157,964	-200,000	0,026	0,113
-156,950	-27,621	0,044	-0,018
-155,935	-136,013	0,161	0,013
-154,920	-200,000	-0,007	0,093
-153,906	800,000	-0,039	0,086
-152,891	-200,000	0,010	0,143
-151,877	590,583	0,064	-0,113
-150,862	-34,769	-0,084	-0,033
-149,847	132,200	0,073	-0,068
-148,833	-200,000	0,025	-0,189
-147,818	158,788	-0,069	-0,069
-146,804	44,083	0,103	0,068
-145,789	218,967	0,036	0,041
-144,775	-109,521	-0,032	-0,005
-143,760	187,348	0,052	-0,056
-142,745	32,560	0,067	0,042
-141,731	306,370	-0,030	-0,040
-140,716	644,638	0,060	-0,111
-139,702	-200,000	0,011	0,172
-138,687	-55,569	0,076	-0,024
-137,672	348,929	0,017	0,025
-136,658	-140,103	0,128	-0,010
-135,643	63,542	0,078	0,057
-134,629	-160,724	-0,102	0,004
-133,614	504,660	-0,030	-0,051
-132,599	-2,610	0,175	0,088
-131,585	80,832	-0,120	0,093
-130,570	-136,977	0,105	-0,008
-129,556	61,487	-0,095	-0,068
-128,541	800,000	0,062	0,179
-127,526	800,000	0,029	0,091
-126,512	160,528	-0,025	0,026
-125,497	323,669	0,090	0,124
-124,483	-200,000	-0,015	-0,096
-123,468	59,141	0,021	-0,015
-122,453	0,622	0,132	0,068
-121,439	-183,249	-0,076	-0,001
-120,424	-200,000	-0,043	0,173
-119,410	-15,730	0,106	-0,048
-118,395	-82,081	-0,061	0,014
-117,380	174,343	-0,078	0,081
-116,366	-200,000	0,009	0,071
-115,351	-200,000	0,008	-0,057
-114,337	-200,000	-0,004	-0,073
-113,322	313,330	0,056	-0,076
-112,307	-200,000	-0,012	0,063
-111,293	-200,000	-0,013	0,101
-110,278	-76,674	0,153	0,038
-109,264	365,735	-0,057	-0,082
-108,249	800,000	-0,031	-0,089
-107,234	-37,417	-0,075	-0,029
-106,220	-47,084	-0,074	0,026
-105,205	308,533	-0,055	-0,073
-104,191	-131,674	0,120	-0,011
-103,176	-200,000	-0,007	-0,108
-102,162	135,095	-0,066	-0,062
-101,147	132,103	0,042	-0,039
-100,132	800,000	0,021	0,060
-99,118	-69,239	-0,119	0,033
-98,103	43,153	-0,063	-0,041
-97,089	-7,529	-0,009	0,005
-96,074	85,092	-0,045	-0,035
-95,059	-200,000	-0,038	0,159
-94,045	-36,481	0,069	0,027
-93,030	-74,730	-0,063	-0,016
-92,016	800,000	-0,074	-0,155
-91,001	34,981	0,012	0,008
-89,986	-66,335	0,104	0,029
-88,972	800,000	-0,032	0,098
-87,957	-17,776	0,028	-0,012
-86,943	27,739	-0,086	-0,052
-85,928	-48,234	0,030	0,010
-84,913	-200,000	-0,012	-0,042
-83,899	800,000	-0,033	0,074
-82,884	-200,000	0,019	0,098
-81,870	-200,000	-0,029	-0,142
-80,855	-65,371	0,054	0,015
-79,840	734,236	0,069	0,133
-78,826	-47,844	-0,042	0,015
-77,811	344,647	-0,016	-0,023
-76,797	-156,529	0,093	-0,004
-75,782	-7,763	0,122	-0,059
-74,767	-56,503	0,042	-0,013
-73,753	-200,000	-0,016	0,108
-72,738	-138,523	0,181	0,014
-71,724	632,455	-0,143	-0,261
-70,709	-200,000	-0,002	-0,105
-69,694	-122,128	-0,052	-0,006
-68,680	-125,839	-0,119	0,013
-67,665	90,128	-0,095	0,076
-66,651	112,422	0,080	0,070
-65,636	-35,320	0,172	-0,067
-64,622	108,841	0,018	0,015
-63,607	769,199	0,025	-0,049
-62,592	-200,000	0,028	-0,243
-61,578	800,000	0,040	-0,110
-60,563	800,000	0,020	-0,048
-59,549	318,301	0,055	0,074
-58,534	32,890	-2,049	-1,270
-57,519	-200,000	-0,162	-0,771
-56,505	-200,000	-1,297	-5,186
-55,490	89,769	0,779	0,623
-54,476	800,000	5,488	11,960
-53,461	-200,000	18,768	318,390
-52,446	800,000	741,609	2335,380
-51,432	558,607	1657,758	2879,895
-50,417	111,177	1641,614	1417,962
-49,403	75,524	1291,304	976,618
-48,388	30,356	1031,851	630,614
-47,373	19,982	994,634	573,472
-46,359	17,461	982,048	557,891
-45,344	14,084	978,185	544,565
-44,330	14,310	976,782	544,505
-43,315	13,696	974,956	541,449
-42,300	13,697	973,833	540,807
-41,286	13,711	972,891	540,310
-40,271	13,756	971,891	539,880
-39,257	13,675	971,168	539,192
-38,242	13,708	970,248	538,767
-37,227	13,761	969,247	538,362
-36,213	13,717	968,333	537,689
-35,198	13,670	967,437	537,017
-34,184	13,740	966,662	536,794
-33,169	13,714	965,749	536,183
-32,154	13,711	964,853	535,652
-31,140	13,704	963,944	535,105
-30,125	13,781	963,163	534,899
-29,111	13,711	962,417	534,237
-28,096	13,697	961,793	533,825
-27,082	13,748	960,893	533,469
-26,067	13,746	960,207	533,060
-25,052	13,748	959,440	532,620
-24,038	13,715	958,778	532,126
-23,023	13,669	958,261	531,669
-22,009	13,711	957,719	531,482
-20,994	13,690	956,868	530,922
-19,979	13,724	956,466	530,785
-18,965	13,743	955,629	530,363
-17,950	13,733	955,044	529,983
-16,936	13,698	954,518	529,558
-15,921	13,706	953,685	529,102
-14,906	13,584	953,146	528,391
-13,892	13,610	952,413	528,047
-12,877	13,639	951,668	527,706
-11,863	13,544	951,121	527,075
-10,848	13,654	950,462	527,043
-9,833	13,670	950,108	526,876
-8,819	13,709	949,262	526,512
-7,804	13,672	948,570	525,988
-6,790	13,555	948,460	525,531
-5,775	13,661	947,688	525,420
-4,760	13,705	947,144	525,240
-3,746	13,669	946,480	524,737
-2,731	13,507	945,788	523,817
-1,717	13,494	944,991	523,311
-0,702	13,501	944,276	522,918
0,313	13,298	943,679	522,732
1,327	16,554	941,380	531,724
2,342	25,568	796,158	473,659
3,356	22,090	460,654	268,690
4,371	-4,889	317,868	156,399
5,386	-8,867	299,762	143,404
6,400	-10,837	293,560	138,447
7,415	-11,256	291,157	136,884
8,429	-11,447	289,674	135,985
9,444	-11,518	288,716	135,453
10,459	-11,455	287,998	135,167
11,473	-11,547	287,522	134,840
12,488	-11,449	286,882	134,625
13,502	-11,471	286,448	134,388
14,517	-11,531	285,994	134,103
15,531	-11,537	285,589	133,896
16,546	-11,374	285,144	133,834
17,561	-11,360	284,696	133,626
18,575	-11,368	284,376	133,456
19,590	-11,430	284,023	133,218
20,604	-11,379	283,660	133,086
21,619	-11,584	283,463	132,782
22,634	-11,472	282,925	132,627
23,648	-11,558	282,685	132,419
24,663	-11,430	282,318	132,359
25,677	-11,521	282,106	132,161
26,692	-11,572	281,898	132,002
27,707	-11,449	281,617	131,977
28,721	-11,487	281,302	131,782
29,736	-11,467	280,916	131,608
30,750	-11,431	280,715	131,537
31,765	-11,573	280,501	131,288
32,780	-11,564	280,299	131,191
33,794	-11,578	280,076	131,061
34,809	-11,409	279,704	131,037
35,823	-11,376	279,356	130,893
36,838	-11,549	279,315	130,698
37,853	-11,518	278,968	130,553
38,867	-11,462	278,756	130,496
39,882	-11,351	278,425	130,434
40,896	-11,495	278,298	130,227
41,911	-11,545	278,056	130,055
42,926	-11,513	277,791	129,949
43,940	-11,559	277,505	129,760
44,955	-11,578	277,240	129,607
45,969	-11,332	277,009	129,720
46,984	-11,610	276,697	129,300
47,999	-11,836	276,528	128,996
49,013	-12,076	276,293	128,649
50,028	-12,199	276,027	128,398
51,042	-12,161	275,660	128,251
52,057	-12,058	275,261	128,151
53,071	-12,206	275,214	127,979
54,086	-11,977	275,073	128,116
55,101	-11,699	274,797	128,236
56,115	-11,851	274,916	128,138
57,130	-11,588	274,799	128,319
58,144	-11,428	274,316	128,231
59,159	-11,264	274,149	128,295
60,174	-11,417	273,832	127,993
61,188	-11,570	273,769	127,809
62,203	-11,284	273,537	127,956
63,217	-11,523	273,314	127,617
64,232	-11,180	272,874	127,719
65,247	-11,294	272,698	127,520
66,261	-11,412	272,477	127,296
67,276	-11,608	272,467	127,098
68,290	-11,806	272,023	126,696
69,305	-11,707	271,715	126,633
70,320	-11,586	271,524	126,645
71,334	-11,255	271,250	126,811
72,349	-11,414	271,293	126,673
73,363	-11,306	270,902	126,579
74,378	-11,226	270,731	126,562
75,393	-11,509	270,637	126,245
76,407	-11,430	270,241	126,122
77,422	-11,279	270,055	126,163
78,436	-11,275	269,846	126,058
79,451	-11,233	269,616	125,977
80,466	-11,503	269,391	125,613
81,480	-11,591	269,193	125,429
82,495	-11,630	269,056	125,318
83,509	-11,416	268,778	125,373
84,524	-11,601	268,532	125,079
85,539	-11,625	268,311	124,942
86,553	-11,739	268,068	124,714
87,568	-11,677	267,854	124,661
88,582	-11,635	267,576	124,558
89,597	-11,601	267,371	124,483
90,611	-11,514	267,362	124,546
91,626	-11,317	267,176	124,627
92,641	-11,494	266,930	124,341
93,655	-11,596	266,851	124,201
94,670	-11,617	266,556	124,033
95,684	-11,408	266,189	124,040
96,699	-11,590	266,156	123,849
97,714	-11,437	265,846	123,832
98,728	-11,531	265,642	123,642
99,743	-11,457	265,307	123,541
100,757	-11,793	265,194	123,175
101,772	-11,589	264,999	123,257
102,787	-11,351	264,796	123,365
103,801	-11,412	264,647	123,230
104,816	-11,417	264,514	123,153
105,830	-11,395	264,399	123,108
106,845	-11,442	264,087	122,910
107,860	-11,556	263,946	122,731
108,874	-11,561	263,729	122,615
109,889	-11,470	263,473	122,566
110,903	-11,500	263,376	122,483
111,918	-11,471	263,155	122,395
112,933	-11,229	262,875	122,470
113,947	-11,349	262,768	122,302
114,962	-11,407	262,575	122,149
115,976	-11,188	262,186	122,153
116,991	-11,367	262,104	121,945
118,006	-11,535	261,886	121,683
119,020	-11,353	261,835	121,810
120,035	-11,164	261,650	121,880
121,049	-11,463	261,503	121,536
122,064	-11,286	261,217	121,549
123,079	-11,446	261,023	121,307
124,093	-11,537	260,859	121,139
125,108	-11,734	260,588	120,828
126,122	-11,670	260,352	120,765
127,137	-11,818	260,221	120,563
128,151	-11,434	259,926	120,754
129,166	-11,522	259,723	120,571
130,181	-11,611	259,542	120,398
131,195	-11,632	259,273	120,244
132,210	-11,519	259,169	120,284
133,224	-11,506	259,148	120,275
134,239	-11,338	258,828	120,263
135,254	-11,381	258,702	120,157
136,268	-11,402	258,345	119,961
137,283	-11,777	258,215	119,563
138,297	-11,653	257,830	119,482
139,312	-11,871	257,649	119,197
140,327	-11,456	257,548	119,502
141,341	-11,312	257,478	119,584
142,356	-11,289	257,272	119,498
143,370	-11,408	257,384	119,435
144,385	-11,183	257,037	119,459
145,400	-10,935	256,783	119,546
146,414	-11,134	256,548	119,253
147,429	-11,290	256,363	119,021
148,443	-11,228	256,152	118,966
149,458	-11,400	256,065	118,767
150,473	-11,113	255,905	118,929
151,487	-11,329	255,469	118,530
152,502	-11,350	255,410	118,474
153,516	-11,145	255,236	118,559
154,531	-11,071	255,127	118,562
155,546	-11,224	254,782	118,259
156,560	-11,304	254,717	118,151
157,575	-11,338	254,557	118,037
158,589	-11,170	254,262	118,033
159,604	-11,212	254,203	117,959
160,619	-11,167	253,966	117,877
161,633	-11,170	253,834	117,803
162,648	-11,236	253,707	117,677
163,662	-11,360	253,642	117,530
164,677	-11,351	253,373	117,402
165,692	-11,156	253,028	117,399
166,706	-11,151	253,022	117,390
167,721	-11,193	252,802	117,242
168,735	-11,351	252,646	117,024
169,750	-11,052	252,518	117,209
170,764	-11,167	252,458	117,073
171,779	-11,239	252,244	116,902
172,794	-11,333	252,114	116,751
173,808	-11,320	251,738	116,578
174,823	-11,542	251,461	116,251
175,837	-11,915	251,321	115,860
176,852	-11,327	251,191	116,288
177,867	-11,010	251,088	116,497
178,881	-11,085	250,939	116,355
179,896	-11,162	250,801	116,215
180,910	-11,118	250,555	116,128
181,925	-11,324	250,441	115,891
182,940	-11,114	250,201	115,947
183,954	-11,244	250,132	115,794
184,969	-11,093	250,015	115,858
185,983	-11,183	249,749	115,648
186,998	-11,036	249,473	115,633
188,013	-10,874	249,312	115,685
189,027	-11,080	249,328	115,508
190,042	-11,191	248,866	115,191
191,056	-11,101	248,834	115,241
192,071	-11,176	248,726	115,118
193,086	-11,139	248,380	114,979
194,100	-11,147	248,230	114,893
195,115	-11,175	248,181	114,837
196,129	-11,271	247,858	114,596
197,144	-11,122	247,675	114,626
198,159	-11,329	247,596	114,407
199,173	-11,277	247,512	114,401
200,188	-11,136	247,070	114,303
201,202	-11,216	246,900	114,149
202,217	-11,587	246,676	113,727
203,232	-11,650	246,434	113,553
204,246	-11,373	246,492	113,799
205,261	-11,001	246,181	113,953
206,275	-11,961	245,822	112,983
207,290	-8,266	247,462	116,800
208,304	0,091	250,102	125,039
209,319	4,174	251,402	129,104
210,334	4,746	251,442	129,592
211,348	4,967	251,226	129,654
212,363	5,234	251,208	129,857
213,377	5,341	251,113	129,885
214,392	4,988	250,898	129,468
215,407	5,052	250,686	129,401
216,421	4,935	250,498	129,194
217,436	5,164	250,363	129,304
218,450	5,344	250,240	129,379
219,465	4,958	250,048	128,946
220,480	4,766	249,733	128,613
221,494	4,655	249,604	128,443
222,509	4,711	249,366	128,355
223,523	4,767	249,187	128,298
224,538	4,494	248,873	127,899
225,553	4,521	248,907	127,927
226,567	4,782	248,572	127,960
227,582	4,653	248,552	127,832
228,596	4,657	248,384	127,737
229,611	4,509	248,106	127,460
230,626	4,356	247,890	127,213
231,640	4,424	247,900	127,262
232,655	4,549	247,690	127,246
233,669	4,290	247,519	126,934
234,684	4,326	247,232	126,805
235,699	4,556	247,306	127,020
236,713	4,559	247,126	126,919
237,728	4,568	247,015	126,858
238,742	4,201	246,628	126,347
239,757	4,207	246,552	126,301
240,772	4,224	246,350	126,201
241,786	4,533	246,274	126,403
242,801	4,201	246,114	126,038
243,815	4,269	245,918	125,982
244,830	4,550	245,698	126,088
245,844	4,675	245,578	126,117
246,859	4,450	245,523	125,894
247,874	4,390	245,245	125,692
248,888	4,663	245,175	125,867
249,903	4,553	244,921	125,636
250,917	4,615	244,884	125,656
251,932	4,694	244,798	125,665
252,947	4,710	244,552	125,540
253,961	4,362	244,356	125,146
254,976	4,779	244,175	125,381
255,990	4,740	243,991	125,243
257,005	4,329	243,908	124,856
258,020	4,067	243,789	124,573
259,034	4,461	243,478	124,721
260,049	4,588	243,426	124,786
261,063	4,377	243,158	124,467
262,078	4,232	243,076	124,297
263,093	4,657	243,001	124,590
264,107	4,690	242,755	124,479
265,122	4,312	242,640	124,105
266,136	4,605	242,481	124,248
267,151	4,779	242,426	124,349
268,166	4,396	242,167	123,898
269,180	4,462	241,889	123,798
270,195	4,958	241,958	124,220
271,209	5,138	241,858	124,301
272,224	4,559	241,497	123,641
273,239	4,178	241,212	123,179
274,253	4,326	241,177	123,269
275,268	4,687	240,991	123,451
276,282	4,719	240,910	123,424
277,297	4,142	240,780	122,886
278,312	4,323	240,596	122,926
279,326	4,392	240,458	122,899
280,341	4,363	240,411	122,841
281,355	4,602	240,110	122,867
282,370	4,616	239,982	122,801
283,384	4,383	239,881	122,554
284,399	4,408	239,629	122,433
285,414	4,256	239,373	122,172
286,428	4,477	239,346	122,322
287,443	4,281	239,277	122,121
288,457	4,643	239,137	122,325
289,472	4,504	239,064	122,166
290,487	4,619	238,723	122,072
291,501	4,437	238,487	121,797
292,516	4,058	238,373	121,429
293,530	3,996	238,198	121,280
294,545	4,502	238,134	121,635
295,560	4,493	237,959	121,528
296,574	4,248	237,759	121,223
297,589	4,232	237,738	121,188
298,603	4,634	237,573	121,409
299,618	4,627	237,391	121,299
300,633	4,321	237,404	121,056
301,647	4,545	237,299	121,167
302,662	4,864	237,206	121,359
303,676	4,990	236,856	121,267
304,691	4,613	236,762	120,913
305,706	4,814	236,673	121,014
306,720	4,793	236,536	120,917
307,735	4,700	236,303	120,715
308,749	4,633	236,028	120,511
309,764	4,443	235,899	120,286
310,779	4,255	235,780	120,069
311,793	4,162	235,411	119,798
312,808	4,097	235,335	119,698
313,822	4,074	235,244	119,623
314,837	4,209	234,987	119,586
315,852	4,063	234,773	119,354
316,866	4,220	234,710	119,433
317,881	4,412	234,637	119,533
318,895	4,654	234,706	119,745
319,910	4,848	234,586	119,824
320,925	4,630	234,111	119,402
321,939	4,227	234,004	119,026
322,954	4,547	233,932	119,226
323,968	4,548	233,799	119,148
324,983	4,533	233,666	119,058
325,997	4,876	233,625	119,290
327,012	4,806	233,424	119,123
328,027	4,460	233,279	118,773
329,041	4,778	233,220	118,976
330,056	5,193	233,289	119,320
331,070	5,203	233,068	119,204
332,085	4,898	232,728	118,786
333,100	4,709	232,519	118,524
334,114	4,644	232,340	118,372
335,129	4,856	232,408	118,559
336,143	5,203	232,078	118,645
337,158	4,814	232,116	118,356
338,173	4,584	231,836	118,027
339,187	4,481	231,679	117,858
340,202	4,658	231,455	117,869
341,216	4,559	231,370	117,739
342,231	4,563	231,235	117,663
343,246	4,287	231,064	117,356
344,260	4,660	230,911	117,552
345,275	4,887	230,855	117,685
346,289	5,032	230,706	117,709
347,304	4,849	230,673	117,543
348,319	4,797	230,486	117,397
349,333	4,699	230,145	117,139
350,348	4,580	229,983	116,956
351,362	4,559	229,961	116,918
352,377	4,382	229,670	116,626
353,392	4,166	229,514	116,374
354,406	4,216	229,454	116,370
355,421	196,075	1316,783	1393,852
356,435	157,326	1449,218	1393,823
