DTS Sentinel unit serial number:	SN410029Multiplexer serial number:	ORYXHardware model number:	OX2-SRSoftware version number:	ORYX F/W v4,00 Oryx Data Collector v3.7.2.0data status	okinstallation	B5 Nyhavnadifferential loss correction	single-endedforward channel	channel 2reverse channel	N/Adate	2023/12/13time	06:27:13forward acquisition time	300,00reverse acquisition time	0,00gamma	499,1914k internal	0,3160k external	0,3160temperature offset calibration	1,0000default loss term (dB/km)	0,3820temperature slope calibration	1,0000multiplexer offset coefficient	1,0000multiplexer slope coefficient	1,0000fibre end	0,00T internal ref (°C)	13,76T ext. ref 1 (°C)	-2,72T ext. ref 2 (°C)	-3,03length (m)	temperature (°C)	Stokes	anti-Stokes-744,400	-38,315	0,157	-0,061
-743,385	-24,270	-0,269	-0,118
-742,371	-67,154	0,255	0,073
-741,356	-87,526	-0,343	0,076
-740,342	-20,441	0,059	-0,026
-739,327	-132,715	-0,286	0,027
-738,312	70,777	0,118	0,090
-737,298	-57,694	-0,409	-0,131
-736,283	-19,582	0,165	0,075
-735,269	-60,612	-0,239	-0,074
-734,254	-48,879	0,066	-0,023
-733,239	-48,577	-0,519	-0,183
-732,225	-153,402	0,106	0,005
-731,210	-200,000	-0,013	0,182
-730,196	-200,000	-0,046	-0,153
-729,181	150,489	-0,088	-0,088
-728,167	800,000	0,021	0,059
-727,152	-200,000	0,002	-0,043
-726,137	-200,000	-0,053	-0,188
-725,123	603,338	-0,018	-0,034
-724,108	204,185	-0,163	-0,187
-723,094	19,993	-0,048	0,028
-722,079	597,973	0,069	-0,127
-721,064	-115,429	-0,034	0,005
-720,050	488,315	0,092	-0,156
-719,035	756,375	0,030	0,061
-718,021	800,000	-0,021	0,047
-717,006	-157,224	-0,125	0,005
-715,991	-185,530	0,087	-0,001
-714,977	-179,818	-0,066	-0,001
-713,962	613,384	-0,030	0,056
-712,948	-58,883	-0,204	0,064
-711,933	-9,726	0,019	-0,009
-710,918	-200,000	-0,045	-0,184
-709,904	-200,000	-0,009	-0,051
-708,889	362,198	-0,064	-0,094
-707,875	549,910	0,028	-0,050
-706,860	97,501	-0,112	0,095
-705,845	785,583	0,041	0,082
-704,831	95,478	-0,040	0,033
-703,816	165,089	-0,066	-0,069
-702,802	-200,000	-0,024	-0,127
-701,787	13,966	-0,109	-0,062
-700,772	120,041	-0,077	-0,070
-699,758	554,916	0,028	0,050
-698,743	-200,000	0,006	-0,031
-697,729	800,000	-0,022	0,059
-696,714	800,000	0,065	-0,200
-695,699	-7,157	0,147	-0,073
-694,685	201,338	-0,054	0,061
-693,670	-200,000	0,001	0,107
-692,656	-200,000	0,007	0,091
-691,641	-200,000	0,008	0,044
-690,627	-200,000	-0,009	-0,058
-689,612	-200,000	-0,028	0,149
-688,597	-200,000	-0,003	-0,080
-687,583	52,829	-0,126	0,089
-686,568	60,423	-0,105	-0,076
-685,554	670,002	0,046	-0,087
-684,539	549,081	-0,064	-0,112
-683,524	-200,000	0,035	0,152
-682,510	304,083	0,036	-0,050
-681,495	14,175	-0,020	-0,011
-680,481	-200,000	-0,005	-0,201
-679,466	-40,159	-0,064	0,024
-678,451	800,000	-0,049	-0,131
-677,437	800,000	0,027	-0,071
-676,422	-138,363	0,088	-0,007
-675,408	-200,000	0,016	0,065
-674,393	578,888	-0,035	0,063
-673,378	-74,582	-0,080	0,021
-672,364	-69,761	-0,049	0,014
-671,349	179,525	-0,085	-0,091
-670,335	-148,539	-0,078	-0,005
-669,320	800,000	0,017	0,045
-668,305	230,872	-0,083	-0,099
-667,291	122,635	-0,051	-0,047
-666,276	680,984	0,027	0,052
-665,262	-200,000	-0,012	-0,124
-664,247	655,198	0,023	-0,044
-663,232	140,135	0,118	-0,114
-662,218	-200,000	0,046	0,174
-661,203	51,149	-0,025	0,017
-660,189	77,107	-0,126	-0,098
-659,174	11,911	-0,040	0,022
-658,159	707,990	-0,009	0,017
-657,145	-29,089	-0,056	0,024
-656,130	800,000	-0,044	0,091
-655,116	170,022	0,025	0,026
-654,101	-104,805	0,107	0,018
-653,086	800,000	-0,031	-0,089
-652,072	-200,000	0,012	-0,180
-651,057	-200,000	-0,003	-0,035
-650,043	-65,880	0,025	-0,007
-649,028	-100,595	-0,130	-0,023
-648,014	-10,922	0,069	0,034
-646,999	-200,000	-0,012	-0,098
-645,984	1,015	-0,048	-0,025
-644,970	-131,275	-0,031	0,003
-643,955	-200,000	0,030	0,155
-642,941	-80,243	-0,048	-0,012
-641,926	213,820	-0,095	-0,111
-640,911	-108,570	0,090	0,014
-639,897	553,796	0,013	0,023
-638,882	540,828	0,056	-0,098
-637,868	58,996	-0,065	0,047
-636,853	-153,381	0,069	0,003
-635,838	587,235	-0,046	-0,083
-634,824	497,212	0,086	0,145
-633,809	-69,208	0,036	0,010
-632,795	-159,261	-0,110	0,004
-631,780	60,902	0,053	-0,039
-630,765	142,951	0,073	0,071
-629,751	330,727	-0,047	-0,067
-628,736	800,000	0,067	-0,186
-627,722	-95,654	0,063	0,012
-626,707	-200,000	-0,012	0,084
-625,692	557,957	0,024	0,043
-624,678	-34,367	-0,190	0,076
-623,663	-86,357	0,026	0,006
-622,649	-32,186	-0,149	0,061
-621,634	-200,000	0,044	-0,157
-620,619	-200,000	-0,020	-0,106
-619,605	-54,232	-0,120	-0,040
-618,590	327,961	-0,067	0,095
-617,576	-200,000	0,038	0,142
-616,561	800,000	-0,035	0,098
-615,546	800,000	-0,019	-0,041
-614,532	54,696	-0,132	-0,093
-613,517	74,795	-0,093	-0,072
-612,503	296,818	-0,088	0,119
-611,488	-66,485	-0,032	-0,009
-610,474	144,481	-0,066	-0,065
-609,459	25,489	-0,067	0,041
-608,444	-200,000	0,027	-0,138
-607,430	-200,000	0,026	0,158
-606,415	265,332	0,059	-0,076
-605,401	-149,074	0,094	0,005
-604,386	298,111	0,073	-0,098
-603,371	-200,000	-0,016	0,110
-602,357	-200,000	-0,007	-0,080
-601,342	92,057	-0,101	-0,083
-600,328	800,000	0,078	-0,170
-599,313	179,300	-0,123	-0,132
-598,298	-200,000	0,015	-0,093
-597,284	-200,000	0,002	-0,016
-596,269	-14,343	0,088	-0,041
-595,255	-200,000	0,011	-0,164
-594,240	322,069	-0,048	-0,066
-593,225	732,372	-0,073	-0,143
-592,211	277,110	-0,038	-0,050
-591,196	-200,000	0,018	0,062
-590,182	-127,497	-0,058	0,006
-589,167	20,059	0,101	-0,059
-588,152	-64,234	-0,096	-0,028
-587,138	800,000	-0,012	0,028
-586,123	-71,956	0,039	0,010
-585,109	-62,234	-0,157	-0,048
-584,094	-39,597	0,179	0,068
-583,079	-98,504	0,014	-0,003
-582,065	-200,000	-0,007	-0,050
-581,050	800,000	-0,074	-0,183
-580,036	800,000	-0,050	0,103
-579,021	-71,293	-0,113	0,031
-578,006	800,000	-0,058	-0,123
-576,992	147,308	-0,086	0,085
-575,977	45,381	-0,080	0,054
-574,963	1,348	0,127	0,066
-573,948	148,379	-0,098	0,097
-572,934	89,495	-0,032	0,026
-571,919	-200,000	0,009	-0,110
-570,904	-98,964	-0,035	-0,006
-569,890	-200,000	0,035	-0,150
-568,875	-41,894	-0,105	0,039
-567,861	-155,282	0,114	0,005
-566,846	-94,572	0,132	0,026
-565,831	-200,000	-0,047	-0,167
-564,817	231,326	0,053	-0,063
-563,802	455,391	-0,028	-0,045
-562,788	-124,404	0,113	-0,013
-561,773	-15,906	-0,114	-0,053
-560,758	398,677	-0,035	-0,053
-559,744	426,179	0,043	0,068
-558,729	-200,000	0,034	-0,132
-557,715	312,320	-0,066	-0,091
-556,700	-74,478	-0,015	-0,004
-555,685	345,315	0,044	-0,063
-554,671	-112,601	-0,133	-0,019
-553,656	800,000	0,002	0,007
-552,642	215,351	0,081	-0,094
-551,627	491,443	0,044	0,074
-550,612	198,865	-0,053	0,060
-549,598	-200,000	0,014	-0,146
-548,583	8,145	0,081	-0,044
-547,569	-200,000	0,010	-0,060
-546,554	-106,182	-0,090	-0,015
-545,539	285,549	0,060	-0,080
-544,525	331,539	0,074	0,105
-543,510	-200,000	-0,023	-0,106
-542,496	124,883	-0,128	-0,117
-541,481	-15,958	0,059	-0,027
-540,466	-175,341	0,057	-0,001
-539,452	11,784	0,071	-0,039
-538,437	294,089	0,037	0,050
-537,423	-127,667	-0,061	0,006
-536,408	399,942	0,076	-0,118
-535,393	-121,979	-0,093	-0,011
-534,379	150,133	-0,085	0,084
-533,364	-113,165	0,070	0,010
-532,350	-200,000	-0,005	-0,115
-531,335	800,000	0,038	0,082
-530,321	11,293	0,026	-0,014
-529,306	800,000	0,035	-0,085
-528,291	158,267	0,109	-0,110
-527,277	-31,975	0,083	0,034
-526,262	-90,603	-0,040	0,008
-525,248	-36,398	-0,070	-0,027
-524,233	474,297	0,016	-0,026
-523,218	221,405	-0,042	0,049
-522,204	800,000	0,006	0,014
-521,189	-65,480	0,125	0,037
-520,175	800,000	-0,051	-0,124
-519,160	144,867	0,053	0,052
-518,145	666,225	0,017	0,033
-517,131	-200,000	0,005	0,096
-516,116	-128,328	0,085	0,009
-515,102	-46,136	0,126	0,045
-514,087	-80,017	-0,115	-0,028
-513,072	-200,000	-0,030	-0,218
-512,058	-200,000	-0,008	-0,112
-511,043	-35,027	-0,100	0,040
-510,029	-200,000	0,012	-0,080
-509,014	800,000	0,044	0,097
-507,999	-200,000	0,011	0,053
-506,985	-200,000	0,014	0,057
-505,970	186,261	-0,054	-0,059
-504,956	297,448	0,057	-0,076
-503,941	-69,531	0,124	0,035
-502,926	-200,000	0,004	0,078
-501,912	-55,360	0,053	0,017
-500,897	-200,000	-0,011	0,061
-499,883	-124,171	0,022	0,002
-498,868	-139,826	-0,099	0,008
-497,853	3,112	-0,153	-0,081
-496,839	381,634	-0,020	-0,030
-495,824	-151,221	0,082	0,004
-494,810	800,000	-0,006	-0,019
-493,795	138,447	-0,052	-0,050
-492,781	6,544	0,140	-0,075
-491,766	-200,000	-0,017	-0,123
-490,751	-61,538	0,031	0,009
-489,737	-6,731	-0,090	-0,045
-488,722	800,000	-0,051	-0,127
-487,708	800,000	-0,011	-0,024
-486,693	-10,076	0,151	0,073
-485,678	39,995	0,095	0,062
-484,664	135,852	-0,099	-0,094
-483,649	247,837	-0,020	-0,024
-482,635	-200,000	0,023	-0,128
-481,620	162,431	-0,109	0,111
-480,605	182,483	0,026	0,028
-479,591	-63,333	0,105	0,031
-478,576	-96,413	0,084	-0,016
-477,562	-85,117	-0,116	-0,026
-476,547	69,770	0,049	-0,037
-475,532	-200,000	-0,028	-0,124
-474,518	142,326	-0,178	-0,172
-473,503	-74,526	0,167	-0,044
-472,489	800,000	0,024	0,069
-471,474	-71,689	-0,124	-0,034
-470,459	13,763	-0,151	-0,085
-469,445	610,528	0,050	-0,091
-468,430	-200,000	-0,032	-0,117
-467,416	-200,000	-0,001	-0,058
-466,401	39,478	-0,068	0,045
-465,386	-83,497	0,108	-0,025
-464,372	-149,389	0,082	0,005
-463,357	190,529	0,034	0,037
-462,343	-200,000	0,015	0,063
-461,328	800,000	-0,009	-0,018
-460,313	159,753	0,054	0,055
-459,299	505,461	-0,045	0,076
-458,284	-200,000	-0,025	0,139
-457,270	-87,273	0,045	0,010
-456,255	-28,041	-0,079	0,033
-455,241	800,000	-0,020	-0,061
-454,226	182,450	0,012	0,013
-453,211	27,773	-0,139	0,085
-452,197	-77,258	0,094	0,024
-451,182	-147,485	-0,165	-0,010
-450,168	69,435	0,118	-0,089
-449,153	-156,824	0,016	0,001
-448,138	-200,000	-0,000	0,062
-447,124	506,592	-0,013	-0,021
-446,109	-200,000	-0,004	0,015
-445,095	-200,000	-0,000	-0,093
-444,080	-84,618	0,161	0,037
-443,065	22,956	-0,053	-0,032
-442,051	-200,000	-0,008	-0,055
-441,036	-200,000	0,031	-0,102
-440,022	83,905	-0,022	-0,018
-439,007	-88,613	0,013	-0,003
-437,992	-70,974	0,262	0,071
-436,978	661,815	0,060	0,112
-435,963	-200,000	0,014	0,145
-434,949	-84,006	-0,105	0,024
-433,934	-200,000	0,021	-0,074
-432,919	99,798	0,038	-0,032
-431,905	-138,766	-0,064	0,005
-430,890	-200,000	0,014	0,058
-429,876	-26,159	-0,093	0,040
-428,861	182,246	0,053	-0,057
-427,846	12,985	-0,111	-0,062
-426,832	-81,379	-0,081	-0,019
-425,817	-10,327	-0,045	-0,022
-424,803	-200,000	-0,032	0,120
-423,788	57,876	0,030	-0,021
-422,773	122,233	-0,084	0,077
-421,759	299,001	0,065	0,088
-420,744	64,283	-0,071	-0,052
-419,730	154,090	-0,049	-0,049
-418,715	42,987	-0,125	-0,083
-417,701	-63,405	0,078	-0,023
-416,686	-26,229	0,060	-0,026
-415,671	114,741	0,041	-0,036
-414,657	-129,618	-0,049	-0,005
-413,642	-200,000	0,019	-0,081
-412,628	132,039	0,100	-0,094
-411,613	73,446	-0,089	-0,067
-410,598	-19,939	0,062	0,028
-409,584	107,894	0,024	-0,021
-408,569	-148,287	0,156	-0,009
-407,555	266,593	-0,103	0,131
-406,540	43,144	0,012	0,008
-405,525	800,000	0,028	0,078
-404,511	-200,000	0,021	-0,217
-403,496	800,000	-0,026	-0,061
-402,482	800,000	0,038	0,096
-401,467	-200,000	0,003	0,020
-400,452	800,000	-0,048	0,147
-399,438	685,476	-0,057	0,110
-398,423	262,893	-0,030	-0,038
-397,409	800,000	-0,029	-0,069
-396,394	8,972	0,032	0,018
-395,379	-18,902	0,053	-0,024
-394,365	800,000	0,017	0,054
-393,350	-200,000	0,017	-0,090
-392,336	-200,000	0,006	-0,037
-391,321	193,251	0,026	0,028
-390,306	11,685	0,086	-0,048
-389,292	82,356	-0,092	0,072
-388,277	-195,447	0,033	0,000
-387,263	-200,000	0,007	0,097
-386,248	243,925	0,039	-0,048
-385,233	-30,105	0,027	0,011
-384,219	-107,412	0,052	0,008
-383,204	800,000	-0,016	-0,052
-382,190	480,964	-0,074	-0,122
-381,175	-163,225	0,091	-0,003
-380,160	-200,000	0,001	0,012
-379,146	-77,146	-0,014	-0,004
-378,131	800,000	0,042	0,106
-377,117	800,000	-0,057	-0,137
-376,102	46,548	0,128	-0,086
-375,088	-200,000	-0,044	-0,169
-374,073	-200,000	0,002	-0,022
-373,058	222,972	0,078	-0,091
-372,044	266,854	0,059	0,074
-371,029	-160,346	0,175	0,007
-370,015	298,396	-0,122	0,163
-369,000	77,481	-0,019	-0,015
-367,985	319,947	-0,084	-0,116
-366,971	800,000	0,043	-0,112
-365,956	-200,000	-0,011	0,049
-364,942	-200,000	-0,004	0,133
-363,927	-200,000	-0,010	0,181
-362,912	545,921	0,052	0,090
-361,898	-24,123	-0,147	-0,064
-360,883	-200,000	-0,016	-0,055
-359,869	-200,000	-0,011	0,068
-358,854	472,886	0,060	-0,098
-357,839	188,521	0,080	0,087
-356,825	-200,000	-0,002	0,151
-355,810	800,000	0,043	0,135
-354,796	421,723	-0,042	-0,066
-353,781	706,551	0,064	-0,124
-352,766	327,113	-0,061	0,085
-351,752	283,156	0,090	0,118
-350,737	-69,406	-0,131	0,036
-349,723	-200,000	0,014	0,044
-348,708	200,670	-0,133	-0,149
-347,693	800,000	-0,025	0,055
-346,679	86,572	-0,147	-0,118
-345,664	-129,714	0,064	0,006
-344,650	-102,095	0,068	0,012
-343,635	-200,000	0,003	0,024
-342,620	-22,205	0,094	0,041
-341,606	800,000	0,019	0,040
-340,591	800,000	-0,025	-0,054
-339,577	-29,491	0,049	0,020
-338,562	-200,000	-0,004	0,027
-337,548	-200,000	-0,005	0,135
-336,533	-200,000	0,007	0,144
-335,518	0,902	0,056	-0,029
-334,504	614,419	0,083	0,152
-333,489	-27,488	-0,043	0,018
-332,475	-101,267	0,045	0,008
-331,460	-200,000	0,035	-0,154
-330,445	-62,381	-0,090	-0,027
-329,431	800,000	-0,012	-0,029
-328,416	-155,705	-0,043	0,002
-327,402	-68,470	0,086	0,024
-326,387	800,000	0,048	-0,113
-325,372	-200,000	-0,033	-0,133
-324,358	-200,000	0,014	-0,091
-323,343	28,404	0,128	-0,078
-322,329	202,746	0,043	0,048
-321,314	575,009	0,006	-0,010
-320,299	-200,000	-0,013	0,074
-319,285	-93,330	-0,053	0,011
-318,270	40,963	0,077	0,050
-317,256	179,461	0,064	0,068
-316,241	427,333	-0,085	0,133
-315,226	344,022	0,068	0,097
-314,212	255,956	-0,103	0,129
-313,197	321,775	0,079	-0,109
-312,183	-54,306	0,137	0,045
-311,168	250,621	0,037	0,046
-310,153	148,128	-0,138	0,135
-309,139	1,303	-0,026	-0,013
-308,124	58,259	-0,085	0,061
-307,110	-75,273	-0,109	0,028
-306,095	487,360	-0,026	0,042
-305,080	-200,000	0,008	0,118
-304,066	-6,944	0,056	0,027
-303,051	800,000	-0,023	0,062
-302,037	11,672	0,256	0,142
-301,022	177,279	-0,015	-0,015
-300,008	35,450	0,101	-0,064
-298,993	20,947	0,111	0,065
-297,978	-77,234	-0,114	0,029
-296,964	50,552	-0,111	0,076
-295,949	208,411	-0,064	-0,073
-294,935	-78,525	0,122	-0,030
-293,920	18,955	-0,099	-0,057
-292,905	-200,000	-0,028	0,092
-291,891	159,010	0,043	0,043
-290,876	-41,414	0,036	-0,013
-289,862	-97,914	-0,098	0,018
-288,847	-200,000	-0,003	-0,040
-287,832	-200,000	-0,026	0,107
-286,818	-200,000	-0,039	0,164
-285,803	102,082	0,070	0,060
-284,789	-27,844	0,058	0,024
-283,774	152,169	-0,038	0,037
-282,759	-7,439	-0,146	-0,071
-281,745	800,000	0,029	-0,060
-280,730	-37,954	-0,024	-0,009
-279,716	602,354	0,042	-0,076
-278,701	92,817	0,082	0,067
-277,686	-20,269	0,049	-0,022
-276,672	-192,345	0,091	0,001
-275,657	341,309	-0,058	0,082
-274,643	800,000	0,008	-0,016
-273,628	-61,338	-0,066	-0,020
-272,613	800,000	0,073	0,153
-271,599	-15,797	0,107	0,049
-270,584	698,489	-0,045	0,085
-269,570	-200,000	-0,006	-0,022
-268,555	116,922	0,022	-0,019
-267,540	541,718	0,049	-0,085
-266,526	800,000	-0,002	-0,004
-265,511	13,370	-0,093	-0,052
-264,497	-24,664	0,007	0,003
-263,482	-200,000	-0,029	0,226
-262,467	800,000	-0,007	0,018
-261,453	458,626	-0,048	0,077
-260,438	103,644	0,067	-0,057
-259,424	378,921	-0,020	-0,030
-258,409	-80,694	-0,093	-0,022
-257,395	238,935	0,063	0,076
-256,380	-176,516	0,069	0,001
-255,365	-86,100	-0,203	0,045
-254,351	-81,480	-0,049	-0,011
-253,336	77,532	0,048	0,037
-252,322	125,764	-0,068	-0,062
-251,307	36,893	0,131	0,084
-250,292	-43,567	0,100	-0,036
-249,278	575,947	0,023	0,041
-248,263	785,318	-0,037	0,073
-247,249	92,393	0,021	-0,017
-246,234	-57,942	-0,073	0,023
-245,219	-77,147	-0,079	-0,020
-244,205	381,148	-0,055	-0,082
-243,190	-200,000	0,065	0,000
-242,176	-200,000	-0,010	-0,137
-241,161	-25,906	0,193	0,082
-240,146	800,000	0,052	0,153
-239,132	99,486	0,034	-0,028
-238,117	-12,022	-0,078	-0,037
-237,103	-12,964	-0,090	0,042
-236,088	50,138	-0,011	-0,008
-235,073	-200,000	0,003	0,078
-234,059	415,593	-0,050	0,078
-233,044	-53,817	0,122	0,040
-232,030	39,246	-0,150	0,097
-231,015	634,055	0,080	0,148
-230,000	-15,177	-0,075	-0,035
-228,986	-132,827	0,040	-0,004
-227,971	329,459	0,042	-0,059
-226,957	800,000	0,050	0,159
-225,942	166,013	0,182	0,186
-224,927	-200,000	0,009	0,079
-223,913	348,701	-0,043	-0,061
-222,898	800,000	-0,077	-0,204
-221,884	-200,000	-0,000	-0,055
-220,869	234,449	-0,051	-0,061
-219,855	511,807	0,004	0,006
-218,840	143,512	-0,115	-0,110
-217,825	518,022	0,038	-0,064
-216,811	40,157	-0,041	-0,027
-215,796	264,667	0,107	0,135
-214,782	-200,000	0,015	0,112
-213,767	793,600	0,063	0,127
-212,752	-178,511	-0,054	0,001
-211,738	-39,974	-0,077	0,029
-210,723	333,183	-0,078	-0,109
-209,709	116,269	0,086	0,076
-208,694	291,504	-0,111	-0,146
-207,679	800,000	-0,025	-0,062
-206,665	-140,969	0,199	-0,015
-205,650	9,859	0,081	-0,044
-204,636	-200,000	0,014	-0,100
-203,621	-200,000	-0,004	0,054
-202,606	-118,593	0,062	-0,008
-201,592	-15,178	-0,057	0,026
-200,577	25,267	-0,081	0,049
-199,563	-59,106	0,134	-0,041
-198,548	254,375	0,038	0,047
-197,533	-200,000	0,029	0,145
-196,519	800,000	0,029	0,061
-195,504	120,222	-0,056	-0,050
-194,490	261,322	0,052	0,065
-193,475	-200,000	-0,004	-0,018
-192,460	800,000	-0,028	0,089
-191,446	-92,712	0,116	0,023
-190,431	278,006	-0,061	0,078
-189,417	-200,000	-0,035	0,118
-188,402	-200,000	0,004	0,029
-187,387	-200,000	0,007	0,047
-186,373	-200,000	-0,027	0,114
-185,358	-200,000	0,027	0,087
-184,344	-200,000	-0,011	0,066
-183,329	800,000	-0,034	0,091
-182,315	1,486	-0,074	0,038
-181,300	-34,443	0,117	0,046
-180,285	362,475	-0,019	-0,027
-179,271	636,304	-0,108	-0,199
-178,256	-200,000	0,004	0,029
-177,242	129,571	0,080	0,074
-176,227	-200,000	-0,019	0,074
-175,212	718,589	-0,059	0,114
-174,198	800,000	0,022	-0,046
-173,183	-44,795	-0,111	-0,040
-172,169	702,423	-0,024	0,046
-171,154	107,274	-0,109	-0,093
-170,139	10,840	-0,117	-0,064
-169,125	-104,659	-0,080	0,013
-168,110	13,646	0,052	-0,029
-167,096	306,906	0,057	-0,077
-166,081	-40,886	0,061	-0,023
-165,066	800,000	-0,026	0,070
-164,052	-200,000	0,012	0,144
-163,037	162,182	0,068	0,069
-162,023	287,606	0,046	0,060
-161,008	-200,000	0,007	0,023
-159,993	800,000	0,041	0,095
-158,979	-84,093	0,072	-0,016
-157,964	273,927	-0,097	-0,124
-156,950	-159,151	0,061	0,002
-155,935	-200,000	-0,037	-0,127
-154,920	338,757	-0,047	-0,066
-153,906	-48,781	0,081	0,028
-152,891	68,643	-0,144	0,106
-151,877	800,000	0,008	-0,024
-150,862	212,142	-0,039	0,044
-149,847	61,921	-0,125	0,090
-148,833	-200,000	0,025	0,161
-147,818	189,666	0,084	0,091
-146,804	192,883	0,048	-0,052
-145,789	-65,635	-0,056	-0,016
-144,775	179,651	0,111	0,117
-143,760	-41,702	-0,165	-0,061
-142,745	-30,367	-0,169	-0,069
-141,731	56,727	0,079	-0,055
-140,716	-110,013	-0,102	0,015
-139,702	-70,907	0,061	-0,016
-138,687	-200,000	0,002	-0,011
-137,672	-70,000	-0,185	-0,050
-136,658	-67,590	-0,059	0,016
-135,643	77,446	-0,047	-0,036
-134,629	521,682	0,046	-0,079
-133,614	-138,293	0,093	0,007
-132,599	-200,000	-0,004	0,105
-131,585	60,196	0,101	-0,071
-130,570	-22,417	-0,095	0,041
-129,556	-106,013	-0,067	-0,011
-128,541	-200,000	-0,004	-0,085
-127,526	-200,000	-0,027	0,180
-126,512	75,545	-0,044	-0,033
-125,497	800,000	0,057	0,139
-124,483	800,000	-0,073	0,160
-123,468	-73,912	-0,128	-0,033
-122,453	564,153	0,067	-0,117
-121,439	72,425	0,015	0,011
-120,424	-156,846	-0,064	0,003
-119,410	-200,000	0,016	-0,143
-118,395	-23,216	0,083	0,036
-117,380	-200,000	0,012	-0,060
-116,366	-200,000	-0,005	-0,028
-115,351	421,112	0,024	-0,038
-114,337	265,407	0,035	-0,044
-113,322	-99,372	-0,123	0,022
-112,307	-200,000	0,033	0,114
-111,293	800,000	-0,015	0,031
-110,278	306,287	-0,047	-0,063
-109,264	-101,971	0,108	0,019
-108,249	-112,004	-0,205	0,029
-107,234	148,931	0,036	0,035
-106,220	184,276	-0,070	-0,075
-105,205	-33,909	0,066	0,026
-104,191	-200,000	-0,001	-0,037
-103,176	800,000	0,054	-0,154
-102,162	-200,000	-0,004	-0,060
-101,147	39,746	-0,023	-0,015
-100,132	409,561	-0,087	-0,133
-99,118	-200,000	0,043	-0,190
-98,103	-200,000	-0,003	-0,044
-97,089	9,165	-0,123	0,067
-96,074	119,193	0,027	0,024
-95,059	-140,709	-0,030	0,002
-94,045	208,277	-0,122	-0,137
-93,030	-55,279	0,152	-0,049
-92,016	145,979	-0,028	0,027
-91,001	220,792	0,051	-0,058
-89,986	-159,465	-0,108	-0,004
-88,972	171,250	0,034	0,035
-87,957	94,088	0,029	0,024
-86,943	-136,256	-0,107	0,009
-85,928	-200,000	-0,001	0,058
-84,913	-156,993	-0,009	-0,000
-83,899	-19,772	0,035	-0,015
-82,884	-200,000	-0,013	-0,064
-81,870	-200,000	0,001	0,056
-80,855	-171,354	0,114	-0,003
-79,840	291,967	-0,049	0,065
-78,826	328,395	-0,026	0,035
-77,811	582,203	-0,019	-0,033
-76,797	144,987	0,113	0,108
-75,782	493,983	0,045	0,074
-74,767	-68,191	-0,042	-0,012
-73,753	-148,876	0,146	-0,008
-72,738	-26,536	-0,058	0,024
-71,724	172,806	-0,083	-0,086
-70,709	112,804	-0,072	-0,063
-69,694	-120,522	0,133	-0,016
-68,680	-7,034	-0,100	-0,048
-67,665	-178,370	0,077	0,001
-66,651	-76,531	0,123	-0,031
-65,636	-102,240	-0,155	0,026
-64,622	320,256	0,038	0,052
-63,607	-149,979	0,207	0,011
-62,592	635,314	0,031	0,056
-61,578	333,055	-0,061	-0,085
-60,563	108,084	0,078	0,067
-59,549	-200,000	0,024	0,108
-58,534	33,996	-2,044	-1,274
-57,519	-200,000	-0,150	-0,709
-56,505	-200,000	-1,474	-5,053
-55,490	140,087	0,865	0,818
-54,476	800,000	5,240	11,964
-53,461	-200,000	18,695	315,959
-52,446	800,000	741,360	2331,555
-51,432	558,532	1657,265	2878,920
-50,417	111,031	1641,220	1416,939
-49,403	75,526	1290,501	976,030
-48,388	30,398	1031,521	630,564
-47,373	19,919	993,935	572,867
-46,359	17,484	981,692	557,771
-45,344	14,137	977,998	544,641
-44,330	14,488	976,282	544,819
-43,315	13,790	974,611	541,573
-42,300	13,787	973,448	540,897
-41,286	13,770	972,427	540,252
-40,271	13,788	971,551	539,802
-39,257	13,836	970,443	539,323
-38,242	13,821	969,498	538,726
-37,227	13,820	968,865	538,350
-36,213	13,789	968,120	537,814
-35,198	13,759	967,076	537,117
-34,184	13,792	966,305	536,772
-33,169	13,781	965,344	536,183
-32,154	13,848	964,267	535,781
-31,140	13,738	963,672	535,073
-30,125	13,809	962,742	534,765
-29,111	13,730	962,109	534,135
-28,096	13,857	961,063	533,943
-27,082	13,833	960,563	533,568
-26,067	13,767	960,019	533,030
-25,052	13,777	959,202	532,589
-24,038	13,778	958,415	532,133
-23,023	13,837	957,594	531,847
-22,009	13,860	957,129	531,642
-20,994	13,772	956,724	531,112
-19,979	13,842	955,753	530,777
-18,965	13,782	955,573	530,462
-17,950	13,820	954,628	530,040
-16,936	13,751	954,079	529,492
-15,921	13,791	953,287	529,160
-14,906	13,697	952,412	528,352
-13,892	13,654	952,011	527,973
-12,877	13,673	951,233	527,580
-11,863	13,588	950,695	526,989
-10,848	13,679	949,973	526,859
-9,833	13,754	949,589	526,863
-8,819	13,740	948,931	526,431
-7,804	13,711	948,159	525,891
-6,790	13,659	947,645	525,420
-5,775	13,733	947,144	525,357
-4,760	13,747	946,693	525,129
-3,746	13,670	946,131	524,553
-2,731	13,552	945,426	523,766
-1,717	13,513	944,667	523,199
-0,702	13,436	944,137	522,643
0,313	13,350	943,333	522,712
1,327	16,671	941,033	531,907
2,342	25,840	795,955	474,264
3,356	22,135	460,657	268,764
4,371	-4,870	317,883	156,430
5,386	-8,938	299,938	143,418
6,400	-10,830	293,650	138,498
7,415	-11,137	291,387	137,112
8,429	-11,430	289,779	136,053
9,444	-11,499	288,801	135,513
10,459	-11,378	288,239	135,357
11,473	-11,468	287,786	135,044
12,488	-11,569	287,197	134,656
13,502	-11,484	286,700	134,494
14,517	-11,372	286,109	134,315
15,531	-11,485	285,695	133,998
16,546	-11,272	285,317	134,017
17,561	-11,393	284,900	133,691
18,575	-11,288	284,670	133,673
19,590	-11,435	284,262	133,328
20,604	-11,307	283,900	133,270
21,619	-11,386	283,602	133,041
22,634	-11,251	283,081	132,916
23,648	-11,330	282,677	132,638
24,663	-11,557	282,591	132,367
25,677	-11,380	282,351	132,413
26,692	-11,536	282,152	132,157
27,707	-11,419	281,846	132,115
28,721	-11,354	281,497	132,002
29,736	-11,340	281,279	131,902
30,750	-11,546	280,964	131,544
31,765	-11,567	280,679	131,379
32,780	-11,224	280,341	131,538
33,794	-11,525	280,180	131,162
34,809	-11,553	280,010	131,044
35,823	-11,312	279,589	131,066
36,838	-11,363	279,364	130,900
37,853	-11,561	279,267	130,654
38,867	-11,357	278,947	130,687
39,882	-11,508	278,578	130,359
40,896	-11,523	278,496	130,294
41,911	-11,374	278,205	130,289
42,926	-11,385	277,933	130,139
43,940	-11,496	277,622	129,877
44,955	-11,440	277,326	129,779
45,969	-11,621	277,218	129,546
46,984	-11,537	276,900	129,465
47,999	-11,829	276,575	129,027
49,013	-12,061	276,576	128,797
50,028	-11,996	276,052	128,602
51,042	-12,150	275,994	128,419
52,057	-12,123	275,716	128,303
53,071	-12,052	275,437	128,229
54,086	-12,072	275,166	128,073
55,101	-11,868	275,023	128,185
56,115	-11,557	274,966	128,439
57,130	-11,356	274,729	128,505
58,144	-11,435	274,566	128,343
59,159	-11,458	274,305	128,188
60,174	-11,198	274,037	128,295
61,188	-11,408	273,990	128,065
62,203	-11,436	273,693	127,888
63,217	-11,433	273,464	127,773
64,232	-11,158	273,082	127,840
65,247	-11,230	272,932	127,691
66,261	-11,263	272,623	127,504
67,276	-11,587	272,463	127,117
68,290	-11,658	271,962	126,806
69,305	-11,725	271,902	126,705
70,320	-11,744	271,768	126,614
71,334	-11,483	271,519	126,727
72,349	-11,342	271,387	126,785
73,363	-11,229	271,137	126,761
74,378	-11,327	270,873	126,536
75,393	-11,203	270,664	126,542
76,407	-11,200	270,495	126,453
77,422	-11,230	270,307	126,327
78,436	-11,367	270,186	126,133
79,451	-11,481	269,901	125,884
80,466	-11,457	269,535	125,724
81,480	-11,608	269,337	125,483
82,495	-11,649	269,293	125,413
83,509	-11,486	268,884	125,361
84,524	-11,422	268,613	125,282
85,539	-11,525	268,347	125,052
86,553	-11,545	268,122	124,919
87,568	-11,688	268,180	124,804
88,582	-11,648	267,779	124,642
89,597	-11,362	267,563	124,790
90,611	-11,470	267,561	124,680
91,626	-11,358	267,339	124,667
92,641	-11,205	267,038	124,655
93,655	-11,349	266,901	124,449
94,670	-11,351	266,634	124,312
95,684	-11,397	266,362	124,132
96,699	-11,335	266,305	124,150
97,714	-11,583	266,064	123,804
98,728	-11,561	265,910	123,741
99,743	-11,762	265,631	123,418
100,757	-11,635	265,407	123,418
101,772	-11,535	265,172	123,387
102,787	-11,580	265,128	123,316
103,801	-11,457	264,789	123,257
104,816	-11,263	264,533	123,301
105,830	-11,345	264,511	123,206
106,845	-11,342	264,320	123,109
107,860	-11,200	264,046	123,098
108,874	-11,468	263,889	122,774
109,889	-11,458	263,731	122,698
110,903	-11,433	263,527	122,615
111,918	-11,388	263,314	122,545
112,933	-11,436	263,063	122,374
113,947	-11,615	262,988	122,169
114,962	-11,409	262,513	122,121
115,976	-11,335	262,541	122,189
116,991	-11,388	262,402	122,066
118,006	-11,305	262,103	121,989
119,020	-11,332	262,111	121,959
120,035	-11,281	261,805	121,851
121,049	-11,272	261,749	121,821
122,064	-11,320	261,503	121,654
123,079	-11,519	261,257	121,352
124,093	-11,445	261,047	121,310
125,108	-11,604	260,792	121,040
126,122	-11,756	260,636	120,823
127,137	-11,757	260,108	120,566
128,151	-11,747	260,095	120,558
129,166	-11,518	260,001	120,705
130,181	-11,631	259,636	120,425
131,195	-11,735	259,628	120,320
132,210	-11,488	259,444	120,441
133,224	-11,454	259,074	120,288
134,239	-11,374	259,097	120,358
135,254	-11,514	258,755	120,066
136,268	-11,407	258,479	120,021
137,283	-11,601	258,301	119,758
138,297	-11,816	258,037	119,437
139,312	-11,731	257,809	119,395
140,327	-11,466	257,790	119,607
141,341	-11,096	257,662	119,859
142,356	-11,329	257,573	119,604
143,370	-11,297	257,382	119,533
144,385	-11,166	257,156	119,531
145,400	-11,240	256,996	119,381
146,414	-11,215	256,808	119,305
147,429	-11,240	256,625	119,188
148,443	-11,435	256,580	118,987
149,458	-11,108	256,257	119,110
150,473	-11,165	256,037	118,948
151,487	-11,340	255,894	118,720
152,502	-11,191	255,627	118,714
153,516	-11,096	255,412	118,685
154,531	-11,164	255,197	118,516
155,546	-11,166	255,163	118,488
156,560	-11,151	254,982	118,406
157,575	-11,154	254,708	118,266
158,589	-11,245	254,557	118,107
159,604	-11,014	254,238	118,147
160,619	-11,304	254,070	117,810
161,633	-11,223	253,976	117,825
162,648	-11,211	253,923	117,800
163,662	-11,181	253,726	117,724
164,677	-11,069	253,490	117,700
165,692	-11,234	253,261	117,442
166,706	-11,280	253,232	117,379
167,721	-10,981	252,787	117,417
168,735	-11,156	252,797	117,262
169,750	-11,171	252,683	117,186
170,764	-11,128	252,574	117,161
171,779	-11,119	252,461	117,106
172,794	-11,076	252,239	117,029
173,808	-11,104	251,933	116,853
174,823	-11,560	251,886	116,433
175,837	-12,081	251,591	115,845
176,852	-11,333	251,386	116,374
177,867	-11,169	251,395	116,507
178,881	-11,190	251,164	116,371
179,896	-11,147	250,939	116,293
180,910	-11,195	250,848	116,200
181,925	-10,998	250,539	116,213
182,940	-11,121	250,419	116,043
183,954	-11,085	250,237	115,979
184,969	-11,293	250,184	115,768
185,983	-11,172	250,024	115,786
186,998	-11,158	249,853	115,709
188,013	-11,144	249,609	115,596
189,027	-11,114	249,359	115,496
190,042	-11,024	249,277	115,523
191,056	-11,086	249,048	115,354
192,071	-11,183	248,730	115,116
193,086	-11,304	248,755	115,016
194,100	-11,102	248,469	115,042
195,115	-10,962	248,201	115,025
196,129	-11,053	248,209	114,942
197,144	-11,166	247,884	114,688
198,159	-11,190	247,840	114,637
199,173	-11,113	247,515	114,540
200,188	-11,123	247,228	114,389
201,202	-11,381	247,193	114,149
202,217	-11,708	246,765	113,669
203,232	-11,825	246,613	113,491
204,246	-11,320	246,624	113,905
205,261	-10,920	246,535	114,185
206,275	-12,098	245,967	112,939
207,290	-8,336	247,357	116,694
208,304	-0,221	250,391	124,924
209,319	4,352	251,479	129,294
210,334	4,797	251,467	129,650
211,348	4,994	251,345	129,740
212,363	5,136	251,377	129,864
213,377	5,112	251,114	129,696
214,392	5,064	251,032	129,602
215,407	4,889	250,766	129,307
216,421	4,919	250,591	129,230
217,436	5,199	250,431	129,370
218,450	5,248	250,188	129,274
219,465	4,928	250,040	128,920
220,480	4,688	249,818	128,594
221,494	4,584	249,668	128,418
222,509	4,656	249,605	128,435
223,523	4,577	249,273	128,187
224,538	4,280	248,964	127,770
225,553	4,563	248,889	127,955
226,567	4,601	248,734	127,896
227,582	4,597	248,768	127,898
228,596	4,570	248,480	127,716
229,611	4,253	248,281	127,341
230,626	4,341	248,170	127,345
231,640	4,339	247,928	127,208
232,655	4,452	247,782	127,215
233,669	4,255	247,587	126,940
234,684	4,113	247,418	126,726
235,699	4,516	247,371	127,022
236,713	4,594	247,293	127,035
237,728	4,371	246,887	126,632
238,742	4,192	246,777	126,417
239,757	3,852	246,513	125,993
240,772	4,249	246,407	126,253
241,786	4,459	246,201	126,308
242,801	4,162	246,071	125,986
243,815	4,166	245,971	125,927
244,830	4,578	245,973	126,254
245,844	4,629	245,629	126,107
246,859	4,291	245,503	125,756
247,874	4,358	245,269	125,679
248,888	4,538	245,108	125,733
249,903	4,520	245,087	125,696
250,917	4,559	244,946	125,643
251,932	4,703	244,812	125,681
252,947	4,653	244,644	125,543
253,961	4,428	244,510	125,280
254,976	4,554	244,296	125,261
255,990	4,460	244,361	125,208
257,005	4,447	243,791	124,894
258,020	4,165	243,584	124,548
259,034	4,593	243,533	124,857
260,049	4,585	243,462	124,803
261,063	4,377	243,252	124,517
262,078	4,047	243,175	124,200
263,093	4,497	243,026	124,475
264,107	4,698	242,861	124,542
265,122	4,333	242,712	124,160
266,136	4,503	242,592	124,225
267,151	4,780	242,459	124,368
268,166	4,353	242,235	123,899
269,180	4,254	242,025	123,701
270,195	4,763	241,980	124,076
271,209	5,069	241,909	124,273
272,224	4,645	241,598	123,763
273,239	3,891	241,365	123,030
274,253	4,300	241,069	123,194
275,268	4,393	241,129	123,289
276,282	4,618	241,010	123,397
277,297	4,082	240,797	122,848
278,312	4,322	240,736	122,998
279,326	4,434	240,502	122,957
280,341	4,310	240,364	122,777
281,355	4,470	240,155	122,787
282,370	4,468	240,190	122,792
283,384	4,436	239,970	122,642
284,399	4,367	239,626	122,401
285,414	4,029	239,492	122,054
286,428	4,223	239,495	122,198
287,443	4,384	239,296	122,213
288,457	4,476	239,017	122,132
289,472	4,582	239,084	122,240
290,487	4,476	238,729	121,964
291,501	4,156	238,691	121,681
292,516	4,151	238,425	121,530
293,530	3,945	238,366	121,327
294,545	4,254	238,244	121,498
295,560	4,360	238,063	121,478
296,574	3,844	237,912	120,984
297,589	4,109	237,637	121,042
298,603	4,615	237,751	121,487
299,618	4,744	237,511	121,454
300,633	4,715	237,499	121,415
301,647	4,661	237,303	121,262
302,662	5,009	237,265	121,504
303,676	4,736	237,056	121,172
304,691	4,610	236,814	120,940
305,706	4,916	236,648	121,083
306,720	4,748	236,572	120,901
307,735	4,444	236,372	120,552
308,749	4,448	236,188	120,450
309,764	4,339	236,036	120,277
310,779	4,307	235,655	120,047
311,793	4,163	235,655	119,924
312,808	4,204	235,415	119,824
313,822	4,016	235,302	119,609
314,837	3,919	235,116	119,428
315,852	3,916	234,933	119,322
316,866	3,871	234,850	119,235
317,881	4,248	234,610	119,394
318,895	4,423	234,619	119,524
319,910	4,899	234,479	119,810
320,925	4,442	234,481	119,447
321,939	3,892	234,253	118,895
322,954	4,424	234,172	119,255
323,968	4,271	233,885	118,980
324,983	4,346	233,901	119,035
325,997	4,652	233,610	119,112
327,012	4,646	233,536	119,059
328,027	4,449	233,361	118,808
329,041	4,819	233,358	119,081
330,056	5,192	233,284	119,319
331,070	4,961	233,127	119,050
332,085	4,753	232,732	118,678
333,100	4,498	232,587	118,398
334,114	4,580	232,451	118,381
335,129	4,763	232,384	118,477
336,143	4,831	232,287	118,469
337,158	4,823	232,104	118,359
338,173	4,666	231,799	118,073
339,187	4,287	231,704	117,725
340,202	4,485	231,565	117,795
341,216	4,340	231,575	117,679
342,231	4,571	231,101	117,603
343,246	4,352	231,135	117,443
344,260	4,390	231,057	117,422
345,275	4,622	231,023	117,570
346,289	4,739	230,934	117,603
347,304	4,723	230,676	117,449
348,319	4,738	230,412	117,316
349,333	4,685	230,399	117,259
350,348	4,284	230,181	116,833
351,362	4,452	230,075	116,897
352,377	4,159	229,744	116,497
353,392	4,201	229,593	116,442
354,406	4,496	229,383	116,547
355,421	195,460	1320,120	1395,450
356,435	156,784	1452,973	1395,413
