DTS Sentinel unit serial number:	SN410029Multiplexer serial number:	ORYXHardware model number:	OX2-SRSoftware version number:	ORYX F/W v4,00 Oryx Data Collector v3.7.2.0data status	okinstallation	B5 Nyhavnadifferential loss correction	single-endedforward channel	channel 2reverse channel	N/Adate	2023/12/12time	00:07:13forward acquisition time	300,00reverse acquisition time	0,00gamma	499,1914k internal	0,3155k external	0,3155temperature offset calibration	1,0000default loss term (dB/km)	0,3820temperature slope calibration	1,0000multiplexer offset coefficient	1,0000multiplexer slope coefficient	1,0000fibre end	0,00T internal ref (°C)	16,15T ext. ref 1 (°C)	-0,22T ext. ref 2 (°C)	-0,50length (m)	temperature (°C)	Stokes	anti-Stokes-744,400	418,687	0,043	-0,068
-743,385	-189,064	-0,367	0,003
-742,371	-33,118	0,214	0,087
-741,356	-81,128	-0,195	0,047
-740,342	800,000	0,087	0,189
-739,327	-25,316	-0,170	0,074
-738,312	-13,310	0,056	0,027
-737,298	-155,055	-0,327	-0,016
-736,283	800,000	0,035	0,081
-735,269	-134,964	-0,243	-0,021
-734,254	107,764	0,032	0,028
-733,239	-37,583	-0,280	-0,110
-732,225	-130,061	0,260	0,026
-731,210	-33,504	-0,094	0,038
-730,196	-60,090	-0,077	0,024
-729,181	261,675	0,067	-0,086
-728,167	9,074	-0,135	-0,075
-727,152	-100,415	0,108	0,020
-726,137	17,183	-0,157	-0,091
-725,123	71,620	-0,017	-0,013
-724,108	3,297	-0,149	-0,080
-723,094	94,278	-0,160	0,134
-722,079	-200,000	-0,017	-0,092
-721,064	196,415	0,063	-0,071
-720,050	237,174	0,023	0,029
-719,035	76,645	-0,090	0,070
-718,021	63,334	-0,086	-0,063
-717,006	-200,000	-0,021	-0,082
-715,991	800,000	0,054	-0,153
-714,977	-20,915	-0,028	-0,012
-713,962	-200,000	-0,021	-0,087
-712,948	724,102	-0,065	0,129
-711,933	252,070	0,096	-0,121
-710,918	800,000	-0,051	-0,142
-709,904	800,000	-0,011	-0,026
-708,889	-200,000	0,007	-0,099
-707,875	-200,000	0,009	0,035
-706,860	-8,032	0,076	0,037
-705,845	129,383	-0,018	-0,017
-704,831	-35,196	0,112	-0,045
-703,816	148,153	-0,112	-0,111
-702,802	346,589	-0,050	-0,072
-701,787	-200,000	-0,017	0,064
-700,772	126,299	-0,061	0,057
-699,758	-10,443	-0,140	0,068
-698,743	391,044	0,049	0,076
-697,729	800,000	0,073	0,168
-696,714	13,303	-0,052	-0,029
-695,699	800,000	-0,066	-0,184
-694,685	-200,000	0,027	-0,172
-693,670	89,444	-0,097	-0,080
-692,656	-200,000	0,031	0,157
-691,641	-200,000	0,009	-0,079
-690,627	102,342	0,064	-0,055
-689,612	543,229	-0,034	0,061
-688,597	-41,121	0,037	-0,014
-687,583	-200,000	-0,024	-0,103
-686,568	785,454	0,041	-0,082
-685,554	-4,795	0,094	0,048
-684,539	63,273	-0,100	-0,074
-683,524	-200,000	-0,001	-0,105
-682,510	185,991	0,032	0,035
-681,495	19,855	-0,130	-0,077
-680,481	78,101	-0,040	-0,032
-679,466	424,988	-0,090	-0,144
-678,451	357,019	-0,034	-0,050
-677,437	800,000	0,038	-0,091
-676,422	800,000	-0,015	0,034
-675,408	800,000	-0,026	-0,053
-674,393	617,031	-0,046	-0,085
-673,378	25,559	-0,073	-0,045
-672,364	26,266	0,083	-0,051
-671,349	-132,573	-0,079	-0,007
-670,335	-150,786	0,103	0,006
-669,320	800,000	-0,063	-0,158
-668,305	-200,000	-0,026	-0,184
-667,291	59,257	0,060	-0,043
-666,276	800,000	-0,008	0,023
-665,262	505,562	-0,080	-0,136
-664,247	-200,000	-0,012	-0,078
-663,232	16,163	-0,104	-0,060
-662,218	401,035	0,027	0,043
-661,203	-56,143	0,096	0,031
-660,189	28,990	-0,049	-0,031
-659,174	140,960	-0,030	-0,029
-658,159	-200,000	0,006	0,042
-657,145	800,000	0,021	-0,064
-656,130	784,408	-0,064	-0,130
-655,116	-69,047	0,137	-0,039
-654,101	-105,309	0,026	0,004
-653,086	800,000	0,047	0,136
-652,072	293,264	-0,053	-0,071
-651,057	47,123	-0,159	-0,109
-650,043	-200,000	-0,004	0,066
-649,028	-153,624	0,047	0,002
-648,014	1,116	0,044	-0,023
-646,999	212,694	0,094	0,109
-645,984	-200,000	-0,061	0,203
-644,970	82,532	-0,051	-0,041
-643,955	-21,745	-0,058	0,026
-642,941	-62,488	-0,091	0,028
-641,926	199,519	-0,102	0,115
-640,911	-200,000	0,008	-0,038
-639,897	800,000	-0,018	0,056
-638,882	93,384	0,068	0,057
-637,868	-200,000	0,003	-0,022
-636,853	483,393	0,064	-0,108
-635,838	74,655	-0,096	-0,074
-634,824	244,887	0,023	0,029
-633,809	23,011	0,116	0,070
-632,795	-153,353	-0,094	0,005
-631,780	-200,000	-0,003	-0,009
-630,765	-135,137	-0,107	0,009
-629,751	273,440	-0,054	-0,071
-628,736	-151,334	-0,023	0,001
-627,722	350,559	0,045	-0,066
-626,707	720,935	-0,035	0,069
-625,692	527,817	-0,036	-0,063
-624,678	-43,726	-0,086	0,032
-623,663	-11,912	-0,056	0,027
-622,649	123,557	-0,164	-0,151
-621,634	800,000	0,032	-0,077
-620,619	-198,850	0,091	-0,000
-619,605	-200,000	0,019	0,064
-618,590	79,778	0,066	-0,052
-617,576	-200,000	0,012	0,099
-616,561	61,327	-0,081	0,059
-615,546	-93,464	-0,153	-0,031
-614,532	25,273	0,047	-0,028
-613,517	-3,643	-0,032	0,016
-612,503	519,968	0,050	0,086
-611,488	-30,018	-0,069	-0,029
-610,474	-2,527	0,014	0,007
-609,459	98,921	0,049	0,041
-608,444	484,890	-0,059	-0,099
-607,430	49,091	-0,128	-0,088
-606,415	337,702	-0,063	-0,090
-605,401	282,015	-0,066	-0,087
-604,386	800,000	0,077	-0,161
-603,371	-32,272	0,087	-0,036
-602,357	-29,643	-0,039	0,016
-601,342	-200,000	0,002	-0,085
-600,328	17,220	-0,057	-0,033
-599,313	-138,119	-0,137	0,011
-598,298	-200,000	-0,003	0,046
-597,284	20,690	0,110	-0,065
-596,269	-200,000	0,016	-0,109
-595,255	-51,825	0,088	0,030
-594,240	270,881	-0,064	0,083
-593,225	-200,000	-0,006	-0,095
-592,211	800,000	-0,031	-0,082
-591,196	445,358	0,045	-0,073
-590,182	211,258	-0,004	-0,004
-589,167	50,528	0,079	-0,055
-588,152	108,793	-0,012	0,011
-587,138	-200,000	0,023	0,081
-586,123	-141,301	-0,147	-0,011
-585,109	94,485	0,127	-0,106
-584,094	-125,293	-0,149	0,016
-583,079	-19,548	0,147	-0,066
-582,065	-137,191	0,129	-0,011
-581,050	-200,000	-0,002	0,092
-580,036	502,665	0,062	-0,106
-579,021	-88,856	-0,093	-0,020
-578,006	-200,000	-0,009	-0,118
-576,992	23,808	0,052	-0,031
-575,977	81,101	0,120	0,095
-574,963	-200,000	0,016	0,116
-573,948	-200,000	0,010	0,078
-572,934	-200,000	-0,002	0,033
-571,919	-41,351	0,028	-0,011
-570,904	-200,000	-0,003	-0,107
-569,890	430,497	-0,082	-0,130
-568,875	-118,234	-0,039	0,005
-567,861	94,525	0,060	0,050
-566,846	168,963	0,105	0,110
-565,831	800,000	-0,052	0,164
-564,817	-3,589	-0,057	-0,029
-563,802	-168,730	-0,148	-0,004
-562,788	-200,000	-0,007	0,060
-561,773	-51,828	0,132	0,045
-560,758	-200,000	0,007	0,125
-559,744	174,595	-0,083	0,088
-558,729	800,000	0,025	0,058
-557,715	245,320	-0,086	-0,106
-556,700	134,465	0,099	-0,095
-555,685	-200,000	-0,006	-0,068
-554,671	318,624	0,053	0,073
-553,656	-132,315	0,033	0,003
-552,642	400,028	-0,010	0,015
-551,627	337,965	-0,077	0,110
-550,612	-82,816	-0,068	0,016
-549,598	800,000	0,017	0,050
-548,583	-136,537	0,018	-0,001
-547,569	220,725	-0,062	0,073
-546,554	-63,890	-0,079	0,024
-545,539	-166,205	0,074	0,002
-544,525	40,696	-0,124	0,082
-543,510	-92,825	-0,079	0,016
-542,496	800,000	-0,024	-0,065
-541,481	-200,000	-0,000	-0,031
-540,466	-52,080	-0,046	-0,016
-539,452	800,000	-0,048	0,114
-538,437	-200,000	0,027	0,112
-537,423	-31,274	-0,081	-0,033
-536,408	467,592	0,083	0,136
-535,393	-200,000	0,006	-0,047
-534,379	71,121	-0,097	0,074
-533,364	107,053	0,063	-0,055
-532,350	-19,932	-0,036	0,016
-531,335	-10,558	0,080	0,039
-530,321	353,262	0,073	0,106
-529,306	-200,000	-0,005	0,025
-528,291	800,000	0,039	-0,082
-527,277	29,026	-0,191	-0,118
-526,262	13,129	0,044	-0,025
-525,248	445,245	-0,054	-0,087
-524,233	-121,351	0,077	0,009
-523,218	-200,000	0,048	0,173
-522,204	-200,000	-0,002	-0,039
-521,189	18,177	-0,050	0,029
-520,175	650,114	-0,040	-0,075
-519,160	-200,000	-0,009	-0,045
-518,145	-16,112	-0,013	-0,006
-517,131	-70,460	0,197	0,054
-516,116	-95,475	0,093	-0,018
-515,102	49,925	-0,115	-0,079
-514,087	55,367	0,024	0,017
-513,072	-6,452	0,040	-0,020
-512,058	-200,000	-0,004	0,060
-511,043	-200,000	-0,022	-0,105
-510,029	-175,910	0,067	-0,001
-509,014	800,000	-0,024	0,051
-507,999	-71,612	0,100	0,027
-506,985	-98,544	-0,136	0,025
-505,970	-200,000	-0,019	-0,081
-504,956	-179,101	0,059	0,001
-503,941	-200,000	0,039	0,159
-502,926	-69,299	0,166	0,046
-501,912	-108,268	-0,109	-0,017
-500,897	545,337	0,042	-0,074
-499,883	800,000	0,016	-0,049
-498,868	-25,040	0,116	-0,050
-497,853	800,000	0,047	-0,099
-496,839	-76,505	-0,064	-0,016
-495,824	104,618	0,068	0,058
-494,810	489,123	-0,025	0,043
-493,795	-200,000	-0,017	-0,117
-492,781	36,856	-0,054	-0,035
-491,766	-200,000	-0,003	-0,114
-490,751	111,556	0,067	-0,059
-489,737	-136,096	0,099	-0,008
-488,722	800,000	-0,045	-0,112
-487,708	136,657	0,076	0,072
-486,693	133,922	-0,039	0,036
-485,678	-62,394	-0,110	-0,033
-484,664	-133,201	-0,095	-0,009
-483,649	679,751	0,099	-0,188
-482,635	800,000	0,061	-0,158
-481,620	10,959	0,045	-0,025
-480,605	-46,193	-0,076	-0,027
-479,591	-178,016	0,103	0,002
-478,576	-85,619	0,104	0,024
-477,562	-200,000	-0,009	0,052
-476,547	-74,392	0,085	0,022
-475,532	141,501	0,082	-0,079
-474,518	149,982	-0,077	-0,076
-473,503	-200,000	0,005	-0,100
-472,489	471,244	0,050	0,083
-471,474	-200,000	-0,002	-0,024
-470,459	4,477	-0,025	-0,013
-469,445	472,135	0,114	-0,189
-468,430	137,465	-0,040	-0,038
-467,416	-200,000	0,026	0,125
-466,401	-73,407	0,077	-0,020
-465,386	-20,084	-0,115	-0,051
-464,372	-200,000	-0,006	0,057
-463,357	-199,593	0,096	0,000
-462,343	800,000	0,024	0,074
-461,328	-200,000	-0,007	0,166
-460,313	-200,000	0,015	-0,066
-459,299	-1,205	-0,070	0,036
-458,284	-200,000	-0,024	0,080
-457,270	-129,405	0,084	0,008
-456,255	-200,000	0,005	-0,137
-455,241	-200,000	0,002	-0,127
-454,226	-22,029	-0,084	0,037
-453,211	88,494	-0,017	-0,014
-452,197	22,229	0,139	-0,083
-451,182	66,469	-0,050	0,037
-450,168	-108,382	-0,111	0,017
-449,153	-60,765	-0,200	-0,061
-448,138	-50,368	-0,141	0,048
-447,124	800,000	-0,027	-0,073
-446,109	-200,000	0,038	-0,154
-445,095	442,573	0,084	0,135
-444,080	-57,307	0,067	0,021
-443,065	186,945	-0,121	0,132
-442,051	527,156	0,029	-0,050
-441,036	707,457	0,018	0,035
-440,022	800,000	0,047	0,110
-439,007	131,582	0,057	-0,053
-437,992	487,947	0,032	0,054
-436,978	-123,333	0,017	-0,002
-435,963	-200,000	0,004	0,041
-434,949	-135,547	-0,161	0,014
-433,934	800,000	-0,040	0,123
-432,919	248,705	0,022	0,027
-431,905	-200,000	-0,021	-0,156
-430,890	-200,000	-0,025	-0,137
-429,876	158,622	0,061	-0,062
-428,861	662,934	0,050	0,094
-427,846	-200,000	0,003	0,023
-426,832	-200,000	0,008	0,036
-425,817	21,138	-0,097	-0,057
-424,803	175,696	-0,075	-0,079
-423,788	47,790	0,138	-0,093
-422,773	800,000	-0,038	-0,115
-421,759	48,325	0,131	0,089
-420,744	-0,042	-0,123	-0,064
-419,730	-200,000	0,004	0,047
-418,715	213,508	-0,073	-0,084
-417,701	422,447	0,028	-0,044
-416,686	182,342	0,063	0,068
-415,671	-134,004	0,156	-0,014
-414,657	-200,000	-0,002	-0,112
-413,642	800,000	0,024	-0,063
-412,628	484,863	-0,041	0,069
-411,613	197,087	-0,091	0,101
-410,598	360,476	-0,031	-0,046
-409,584	800,000	0,048	0,099
-408,569	800,000	-0,048	0,115
-407,555	14,854	-0,060	0,034
-406,540	-39,737	0,005	-0,002
-405,525	112,771	-0,075	0,066
-404,511	800,000	0,063	-0,177
-403,496	800,000	-0,012	0,029
-402,482	-60,515	0,128	0,039
-401,467	-200,000	-0,022	0,104
-400,452	-102,307	0,108	-0,019
-399,438	-21,210	0,049	0,022
-398,423	409,405	-0,000	0,000
-397,409	-28,551	0,100	0,042
-396,394	-36,674	-0,116	0,045
-395,379	-200,000	0,020	-0,085
-394,365	11,865	-0,039	-0,022
-393,350	-94,187	-0,039	0,008
-392,336	800,000	0,046	0,144
-391,321	364,066	-0,047	-0,069
-390,306	-21,303	0,076	-0,034
-389,292	549,301	-0,027	-0,047
-388,277	31,878	0,052	-0,033
-387,263	51,142	0,100	-0,069
-386,248	800,000	-0,042	0,129
-385,233	148,042	0,140	0,138
-384,219	-32,568	0,110	0,044
-383,204	159,529	-0,071	0,072
-382,190	-48,317	-0,128	-0,045
-381,175	-37,056	-0,083	-0,032
-380,160	427,518	-0,007	0,011
-379,146	290,289	-0,065	0,086
-378,131	-200,000	-0,016	0,055
-377,117	65,273	0,056	0,041
-376,102	800,000	-0,029	0,087
-375,088	261,686	0,042	-0,053
-374,073	494,714	0,029	-0,048
-373,058	-107,224	0,231	0,037
-372,044	-93,164	-0,063	-0,013
-371,029	31,934	-0,108	0,068
-370,015	63,172	0,116	-0,084
-369,000	-134,572	-0,079	-0,007
-367,985	-200,000	0,022	-0,081
-366,971	-76,266	0,051	-0,013
-365,956	800,000	-0,020	0,050
-364,942	96,721	0,070	-0,058
-363,927	32,356	0,073	-0,046
-362,912	181,425	-0,105	-0,112
-361,898	44,354	0,063	-0,042
-360,883	121,327	-0,091	-0,082
-359,869	195,612	0,065	0,071
-358,854	69,736	-0,048	0,036
-357,839	-83,823	0,080	0,018
-356,825	-150,885	0,039	-0,002
-355,810	800,000	-0,008	-0,023
-354,796	95,876	0,050	-0,041
-353,781	4,013	-0,127	-0,067
-352,766	-200,000	0,016	-0,109
-351,752	51,924	-0,119	0,082
-350,737	102,001	0,041	0,035
-349,723	150,040	0,084	-0,083
-348,708	800,000	0,012	-0,033
-347,693	-105,473	-0,011	0,002
-346,679	-142,011	-0,129	-0,009
-345,664	344,464	0,085	0,121
-344,650	143,564	-0,018	0,017
-343,635	-119,449	0,170	0,021
-342,620	-120,585	-0,159	0,019
-341,606	30,462	0,023	-0,015
-340,591	-101,744	-0,154	0,027
-339,577	-79,960	-0,065	-0,016
-338,562	-38,067	-0,020	0,008
-337,548	-200,000	-0,057	0,216
-336,533	800,000	0,045	0,139
-335,518	-2,460	0,053	0,027
-334,504	4,501	0,060	-0,032
-333,489	-43,891	-0,104	-0,038
-332,475	800,000	0,015	-0,038
-331,460	-187,884	0,033	-0,000
-330,445	800,000	-0,044	-0,122
-329,431	26,241	0,084	0,051
-328,416	-200,000	0,013	0,079
-327,402	-133,613	-0,073	0,007
-326,387	256,863	0,090	-0,112
-325,372	-68,221	-0,033	0,009
-324,358	-110,295	0,112	-0,017
-323,343	194,746	0,002	-0,003
-322,329	-200,000	-0,023	-0,169
-321,314	-200,000	0,010	-0,053
-320,299	679,688	0,023	0,043
-319,285	177,214	0,078	0,083
-318,270	60,763	-0,049	0,035
-317,256	-153,322	-0,109	0,005
-316,241	134,340	-0,049	-0,046
-315,226	-200,000	0,008	0,106
-314,212	-200,000	-0,020	0,109
-313,197	-22,944	-0,057	-0,025
-312,183	-37,418	0,070	-0,027
-311,168	543,131	-0,042	-0,072
-310,153	-14,798	-0,181	-0,084
-309,139	-58,424	-0,065	-0,020
-308,124	181,220	0,073	0,078
-307,110	800,000	0,035	0,074
-306,095	-85,540	0,082	0,018
-305,080	-200,000	0,007	-0,031
-304,066	193,560	-0,027	0,030
-303,051	-137,031	0,049	-0,004
-302,037	-117,466	0,143	-0,018
-301,022	-120,055	-0,082	-0,010
-300,008	-159,300	0,109	-0,004
-298,993	-200,000	0,005	-0,066
-297,978	800,000	-0,012	-0,032
-296,964	-120,957	-0,075	-0,009
-295,949	-53,179	0,062	-0,021
-294,935	66,660	-0,112	0,083
-293,920	-126,726	-0,032	-0,003
-292,905	-27,886	0,098	0,041
-291,891	800,000	-0,077	0,158
-290,876	779,931	0,068	0,136
-289,862	268,858	0,049	0,063
-288,847	55,920	-0,146	-0,102
-287,832	-200,000	-0,014	0,108
-286,818	-67,639	0,003	-0,001
-285,803	694,426	0,058	0,111
-284,789	-71,346	0,058	0,016
-283,774	-131,224	0,168	0,016
-282,759	-153,110	-0,076	0,004
-281,745	97,726	0,109	-0,091
-280,730	33,669	0,129	-0,081
-279,716	-64,716	-0,136	-0,040
-278,701	-191,590	0,058	-0,000
-277,686	182,277	0,038	-0,041
-276,672	646,817	-0,030	0,055
-275,657	111,550	0,036	-0,031
-274,643	-80,591	0,190	0,045
-273,628	-200,000	-0,032	0,138
-272,613	800,000	-0,046	-0,112
-271,599	-63,504	-0,029	0,009
-270,584	-200,000	0,042	0,168
-269,570	-200,000	-0,020	0,151
-268,555	132,882	0,073	-0,068
-267,540	-41,444	-0,130	-0,048
-266,526	190,167	-0,012	0,013
-265,511	-200,000	-0,012	-0,079
-264,497	709,692	-0,020	-0,039
-263,482	-145,081	-0,155	-0,010
-262,467	91,771	-0,013	0,010
-261,453	-200,000	0,017	0,147
-260,438	68,070	-0,048	0,035
-259,424	-200,000	-0,038	-0,131
-258,409	800,000	-0,037	-0,085
-257,395	-82,522	-0,131	0,030
-256,380	176,345	0,084	-0,089
-255,365	347,739	-0,077	0,110
-254,351	39,990	0,055	-0,035
-253,336	113,491	-0,091	-0,080
-252,322	177,195	-0,017	0,018
-251,307	-200,000	0,028	0,127
-250,292	-124,842	-0,023	-0,003
-249,278	-39,150	0,024	0,009
-248,263	160,225	-0,070	-0,070
-247,249	800,000	-0,042	0,121
-246,234	58,554	0,061	-0,043
-245,219	-33,711	0,066	-0,026
-244,205	-130,647	-0,060	0,006
-243,190	402,422	0,023	0,035
-242,176	-161,256	0,046	-0,002
-241,161	800,000	0,023	0,071
-240,146	-168,172	0,087	0,002
-239,132	-99,082	0,052	0,009
-238,117	-200,000	0,010	-0,067
-237,103	800,000	0,026	-0,058
-236,088	-128,167	-0,149	0,015
-235,073	-200,000	0,001	0,037
-234,059	-87,615	0,054	0,012
-233,044	27,701	0,009	-0,006
-232,030	109,315	-0,122	-0,106
-231,015	22,465	-0,164	-0,097
-230,000	48,512	-0,068	-0,046
-228,986	55,497	0,100	0,070
-227,971	-200,000	-0,017	0,081
-226,957	725,018	0,031	0,061
-225,942	-200,000	-0,011	0,096
-224,927	7,721	-0,123	0,066
-223,913	-96,493	-0,113	-0,021
-222,898	24,993	0,084	-0,050
-221,884	92,766	0,079	0,065
-220,869	-90,955	0,069	-0,014
-219,855	665,883	-0,075	0,141
-218,840	19,436	-0,112	0,065
-217,825	-200,000	-0,005	-0,096
-216,811	-200,000	-0,015	0,129
-215,796	-121,010	0,069	0,008
-214,782	-200,000	-0,010	0,128
-213,767	-200,000	-0,008	0,043
-212,752	-121,929	0,182	0,021
-211,738	-62,750	-0,146	0,044
-210,723	-77,534	-0,123	0,031
-209,709	195,089	-0,019	0,021
-208,694	-200,000	-0,007	-0,189
-207,679	-65,237	-0,052	-0,015
-206,665	-58,279	0,161	-0,050
-205,650	-107,262	0,201	-0,032
-204,636	800,000	-0,005	-0,014
-203,621	92,298	-0,021	0,017
-202,606	800,000	0,013	-0,041
-201,592	-22,601	-0,112	-0,049
-200,577	206,679	0,040	0,046
-199,563	19,686	0,157	-0,091
-198,548	-78,426	0,141	-0,035
-197,533	-61,921	-0,102	0,030
-196,519	-200,000	-0,001	0,134
-195,504	30,708	-0,087	0,054
-194,490	7,196	0,064	-0,035
-193,475	27,776	-0,121	0,074
-192,460	480,771	0,038	0,062
-191,446	800,000	-0,084	0,173
-190,431	-105,415	0,048	0,008
-189,417	-122,702	0,059	0,007
-188,402	800,000	0,031	-0,076
-187,387	-195,227	0,016	0,000
-186,373	-200,000	0,024	-0,113
-185,358	-200,000	0,015	-0,079
-184,344	-200,000	0,010	-0,042
-183,329	82,632	0,118	0,092
-182,315	366,680	-0,017	-0,024
-181,300	-200,000	-0,018	-0,080
-180,285	-81,979	0,111	0,026
-179,271	208,628	-0,075	-0,084
-178,256	31,452	0,129	-0,080
-177,242	-200,000	0,004	-0,012
-176,227	512,341	0,089	0,150
-175,212	-103,853	0,116	-0,019
-174,198	-37,506	-0,060	0,023
-173,183	800,000	-0,028	0,064
-172,169	329,023	-0,031	-0,043
-171,154	8,397	0,030	0,016
-170,139	800,000	-0,017	0,049
-169,125	-200,000	0,022	0,103
-168,110	26,685	0,108	-0,065
-167,096	-157,412	-0,055	-0,002
-166,081	106,136	-0,097	-0,083
-165,066	-200,000	0,009	-0,056
-164,052	-51,905	-0,024	0,008
-163,037	-200,000	-0,040	-0,183
-162,023	-61,273	-0,088	0,027
-161,008	16,005	-0,092	0,052
-159,993	251,649	-0,035	0,043
-158,979	-135,470	0,116	-0,010
-157,964	800,000	-0,057	-0,130
-156,950	11,014	-0,138	-0,076
-155,935	-200,000	0,001	-0,080
-154,920	-128,345	0,115	-0,012
-153,906	280,326	0,045	0,059
-152,891	-26,618	-0,077	0,032
-151,877	120,750	-0,092	0,082
-150,862	250,168	-0,046	-0,056
-149,847	-111,956	-0,155	0,022
-148,833	-200,000	-0,014	0,102
-147,818	778,704	-0,024	-0,048
-146,804	800,000	0,016	0,041
-145,789	5,553	-0,045	-0,024
-144,775	195,550	-0,087	0,095
-143,760	-52,680	0,150	-0,050
-142,745	-69,837	0,092	-0,025
-141,731	800,000	0,043	0,109
-140,716	800,000	0,013	0,038
-139,702	-132,035	0,129	-0,012
-138,687	-200,000	-0,002	-0,011
-137,672	107,584	0,063	0,054
-136,658	623,864	0,049	-0,089
-135,643	-200,000	0,007	-0,142
-134,629	-160,175	0,085	0,003
-133,614	-103,533	0,125	-0,021
-132,599	-134,674	-0,091	-0,008
-131,585	445,745	-0,035	0,055
-130,570	-200,000	0,021	0,125
-129,556	62,689	-0,066	-0,048
-128,541	714,714	-0,019	-0,036
-127,526	800,000	-0,014	-0,040
-126,512	336,240	0,062	-0,087
-125,497	95,160	0,009	0,007
-124,483	40,644	-0,031	0,020
-123,468	800,000	0,028	0,065
-122,453	107,090	-0,075	-0,064
-121,439	800,000	0,040	-0,102
-120,424	-200,000	-0,017	0,089
-119,410	104,392	0,039	0,033
-118,395	-49,759	0,129	-0,044
-117,380	-141,121	-0,041	-0,003
-116,366	84,014	-0,021	-0,016
-115,351	800,000	-0,030	-0,067
-114,337	183,855	0,064	-0,068
-113,322	21,997	0,071	0,041
-112,307	-12,162	0,116	0,055
-111,293	422,398	-0,018	-0,028
-110,278	369,445	-0,024	0,034
-109,264	25,848	0,081	-0,049
-108,249	-200,000	-0,005	0,160
-107,234	-13,983	-0,044	-0,020
-106,220	49,282	-0,114	-0,077
-105,205	160,778	0,030	0,030
-104,191	-37,891	0,138	-0,052
-103,176	800,000	-0,007	0,017
-102,162	197,242	0,070	-0,077
-101,147	585,686	-0,050	-0,089
-100,132	189,585	0,103	-0,111
-99,118	800,000	-0,013	0,027
-98,103	-11,352	-0,090	0,043
-97,089	712,632	0,086	0,165
-96,074	222,968	0,058	0,067
-95,059	800,000	0,012	0,032
-94,045	-77,172	-0,113	0,028
-93,030	-200,000	-0,009	0,087
-92,016	75,184	-0,169	-0,128
-91,001	243,179	-0,060	-0,072
-89,986	-32,199	-0,043	-0,017
-88,972	-4,251	0,161	0,080
-87,957	-62,761	-0,089	0,026
-86,943	332,867	-0,050	0,070
-85,928	-175,018	-0,144	0,003
-84,913	-200,000	-0,035	-0,152
-83,899	252,242	-0,016	-0,019
-82,884	-200,000	0,039	0,137
-81,870	800,000	-0,027	0,084
-80,855	68,344	-0,038	0,028
-79,840	-45,845	-0,175	-0,062
-78,826	198,891	0,050	-0,055
-77,811	-200,000	-0,024	-0,088
-76,797	0,537	-0,074	-0,038
-75,782	-200,000	0,021	-0,164
-74,767	800,000	0,030	-0,089
-73,753	-200,000	0,054	0,205
-72,738	161,608	-0,089	-0,090
-71,724	-32,436	0,083	-0,033
-70,709	242,643	0,070	0,085
-69,694	123,808	-0,067	-0,060
-68,680	41,727	0,070	0,045
-67,665	-200,000	0,009	-0,184
-66,651	-199,731	0,112	0,000
-65,636	347,311	-0,050	-0,071
-64,622	-200,000	-0,017	-0,077
-63,607	-25,510	-0,064	-0,027
-62,592	49,167	-0,108	-0,072
-61,578	-112,704	-0,138	-0,020
-60,563	300,912	0,059	-0,078
-59,549	37,197	0,023	0,015
-58,534	-11,472	-1,904	-0,896
-57,519	-200,000	-0,281	-0,919
-56,505	-200,000	-1,278	-4,919
-55,490	1,446	0,682	0,351
-54,476	800,000	5,311	12,185
-53,461	-200,000	17,235	282,058
-52,446	800,000	721,015	2227,060
-51,432	546,105	1636,311	2820,872
-50,417	112,892	1630,686	1418,764
-49,403	76,622	1287,374	979,472
-48,388	33,238	1030,077	640,286
-47,373	20,384	991,830	574,036
-46,359	18,987	980,005	562,575
-45,344	16,449	976,090	551,977
-44,330	16,648	974,558	551,742
-43,315	16,226	972,768	549,326
-42,300	16,137	971,720	548,422
-41,286	16,184	970,784	548,023
-40,271	16,194	969,786	547,472
-39,257	16,220	968,758	546,956
-38,242	16,201	968,089	546,492
-37,227	16,207	967,250	546,017
-36,213	16,188	966,494	545,508
-35,198	16,184	965,286	544,791
-34,184	16,198	964,842	544,564
-33,169	16,132	963,635	543,646
-32,154	16,236	962,545	543,348
-31,140	16,211	961,766	542,807
-30,125	16,258	961,014	542,511
-29,111	16,129	960,476	541,770
-28,096	16,234	959,610	541,597
-27,082	16,145	959,137	541,023
-26,067	16,130	958,265	540,462
-25,052	16,235	957,367	540,270
-24,038	16,170	956,729	539,682
-23,023	16,124	956,188	539,206
-22,009	16,244	955,321	539,080
-20,994	16,214	954,829	538,686
-19,979	16,198	954,336	538,336
-18,965	16,186	953,673	537,903
-17,950	16,184	953,059	537,528
-16,936	16,116	952,376	536,902
-15,921	16,161	951,521	536,542
-14,906	16,099	950,928	535,989
-13,892	16,052	950,559	535,610
-12,877	16,001	949,735	534,961
-11,863	16,077	948,923	534,724
-10,848	16,036	948,457	534,311
-9,833	16,170	948,123	534,529
-8,819	16,187	947,247	534,068
-7,804	16,079	946,608	533,342
-6,790	16,023	946,187	532,905
-5,775	16,132	945,484	532,836
-4,760	16,103	944,828	532,352
-3,746	16,029	944,364	531,836
-2,731	15,962	943,580	531,160
-1,717	15,905	942,918	530,586
-0,702	15,912	942,304	530,242
0,313	15,766	941,644	530,208
1,327	18,938	939,605	539,032
2,342	28,008	797,207	481,454
3,356	24,628	461,073	273,240
4,371	-2,496	314,994	157,789
5,386	-6,855	296,774	144,228
6,400	-8,842	290,674	139,274
7,415	-9,287	288,230	137,652
8,429	-9,494	286,783	136,745
9,444	-9,441	285,764	136,299
10,459	-9,244	285,257	136,238
11,473	-9,353	284,665	135,836
12,488	-9,307	284,178	135,637
13,502	-9,333	283,629	135,337
14,517	-9,156	283,243	135,313
15,531	-9,070	282,612	135,082
16,546	-9,319	282,431	134,743
17,561	-9,221	282,009	134,624
18,575	-9,054	281,477	134,519
19,590	-9,250	281,372	134,268
20,604	-9,172	281,018	134,163
21,619	-9,199	280,537	133,894
22,634	-9,198	280,316	133,779
23,648	-9,356	279,968	133,449
24,663	-9,344	279,706	133,324
25,677	-9,243	279,438	133,280
26,692	-9,200	279,128	133,161
27,707	-9,273	278,926	132,984
28,721	-9,378	278,664	132,748
29,736	-9,246	278,392	132,732
30,750	-9,317	278,235	132,577
31,765	-9,311	277,943	132,432
32,780	-9,208	277,575	132,343
33,794	-9,190	277,269	132,202
34,809	-9,501	277,114	131,822
35,823	-9,370	276,902	131,833
36,838	-9,279	276,603	131,765
37,853	-9,479	276,447	131,490
38,867	-9,209	276,076	131,556
39,882	-9,229	275,842	131,415
40,896	-9,544	275,825	131,098
41,911	-9,387	275,285	130,977
42,926	-9,398	275,193	130,912
43,940	-9,421	274,939	130,757
44,955	-9,209	274,703	130,832
45,969	-9,544	274,538	130,428
46,984	-9,417	274,191	130,371
47,999	-9,594	273,808	130,011
49,013	-9,895	273,681	129,659
50,028	-9,912	273,457	129,524
51,042	-10,106	273,164	129,194
52,057	-10,130	272,922	129,045
53,071	-9,989	272,555	128,991
54,086	-9,789	272,401	129,093
55,101	-9,745	272,226	129,039
56,115	-9,500	272,303	129,292
57,130	-9,203	272,078	129,449
58,144	-9,138	271,816	129,373
59,159	-9,126	271,430	129,188
60,174	-9,157	271,359	129,115
61,188	-9,162	271,224	129,034
62,203	-9,184	270,954	128,874
63,217	-9,282	270,644	128,625
64,232	-9,186	270,535	128,650
65,247	-9,310	270,429	128,474
66,261	-9,412	270,021	128,174
67,276	-9,431	269,810	128,045
68,290	-9,582	269,612	127,801
69,305	-9,520	269,171	127,638
70,320	-9,616	269,123	127,516
71,334	-9,318	269,046	127,741
72,349	-9,178	268,819	127,750
73,363	-9,125	268,413	127,594
74,378	-9,118	268,274	127,523
75,393	-9,298	268,187	127,306
76,407	-9,204	267,845	127,218
77,422	-9,134	267,628	127,168
78,436	-9,144	267,506	127,089
79,451	-8,984	267,170	127,063
80,466	-9,338	267,000	126,650
81,480	-9,384	266,704	126,457
82,495	-9,424	266,516	126,319
83,509	-9,406	266,333	126,238
84,524	-9,333	266,148	126,205
85,539	-9,581	265,916	125,860
86,553	-9,632	265,653	125,678
87,568	-9,327	265,432	125,837
88,582	-9,379	265,277	125,705
89,597	-9,439	265,007	125,513
90,611	-9,201	264,921	125,675
91,626	-9,208	264,816	125,608
92,641	-9,236	264,555	125,447
93,655	-9,222	264,251	125,304
94,670	-9,178	264,041	125,233
95,684	-9,309	264,030	125,100
96,699	-9,241	263,590	124,941
97,714	-9,331	263,514	124,813
98,728	-9,532	263,280	124,511
99,743	-9,364	263,084	124,558
100,757	-9,396	262,767	124,368
101,772	-9,572	262,725	124,180
102,787	-9,390	262,446	124,199
103,801	-9,245	262,133	124,169
104,816	-9,392	262,201	124,059
105,830	-9,046	262,109	124,313
106,845	-9,275	261,825	123,963
107,860	-9,420	261,743	123,784
108,874	-9,339	261,412	123,688
109,889	-9,296	261,268	123,648
110,903	-9,554	261,106	123,331
111,918	-9,374	260,808	123,339
112,933	-9,342	260,638	123,276
113,947	-9,211	260,350	123,244
114,962	-9,368	260,237	123,041
115,976	-9,114	260,062	123,171
116,991	-9,057	259,784	123,079
118,006	-9,208	259,659	122,876
119,020	-9,272	259,478	122,723
120,035	-9,277	259,429	122,685
121,049	-9,195	259,143	122,610
122,064	-9,088	258,905	122,581
123,079	-9,319	258,781	122,308
124,093	-9,337	258,547	122,172
125,108	-9,664	258,449	121,827
126,122	-9,706	258,065	121,599
127,137	-9,578	257,816	121,582
128,151	-9,579	257,683	121,509
129,166	-9,512	257,619	121,526
130,181	-9,516	257,336	121,377
131,195	-9,806	257,279	121,087
132,210	-9,407	256,951	121,270
133,224	-9,307	256,843	121,295
134,239	-9,294	256,513	121,139
135,254	-9,189	256,424	121,178
136,268	-9,224	256,197	121,029
137,283	-9,410	255,930	120,731
138,297	-9,661	255,822	120,452
139,312	-9,685	255,541	120,288
140,327	-9,467	255,618	120,502
141,341	-9,094	255,377	120,700
142,356	-9,043	255,050	120,579
143,370	-9,111	254,948	120,462
144,385	-8,991	254,840	120,503
145,400	-9,061	254,529	120,285
146,414	-9,027	254,356	120,222
147,429	-9,126	254,256	120,078
148,443	-9,090	254,038	119,996
149,458	-9,152	253,942	119,887
150,473	-8,955	253,617	119,891
151,487	-9,051	253,465	119,727
152,502	-9,083	253,282	119,602
153,516	-9,197	253,330	119,516
154,531	-9,048	252,970	119,463
155,546	-9,062	252,784	119,353
156,560	-8,993	252,498	119,267
157,575	-9,128	252,311	119,052
158,589	-9,039	252,175	119,053
159,604	-8,954	252,144	119,100
160,619	-9,313	252,016	118,723
161,633	-9,104	251,663	118,724
162,648	-9,267	251,741	118,612
163,662	-9,105	251,464	118,608
164,677	-9,062	251,196	118,508
165,692	-9,055	251,093	118,455
166,706	-9,011	250,800	118,344
167,721	-9,119	250,804	118,243
168,735	-8,879	250,619	118,348
169,750	-8,807	250,330	118,262
170,764	-9,155	250,444	118,011
171,779	-9,077	250,114	117,911
172,794	-9,095	250,000	117,832
173,808	-9,121	249,935	117,769
174,823	-9,428	249,401	117,248
175,837	-9,470	249,201	117,108
176,852	-9,285	249,267	117,284
177,867	-9,050	249,178	117,429
178,881	-9,122	249,026	117,287
179,896	-8,861	248,760	117,371
180,910	-9,039	248,509	117,092
181,925	-8,994	248,368	117,053
182,940	-8,688	248,120	117,182
183,954	-9,032	248,201	116,921
184,969	-8,981	247,896	116,810
185,983	-8,927	247,719	116,761
186,998	-9,041	247,470	116,538
188,013	-8,885	247,244	116,552
189,027	-8,951	247,279	116,503
190,042	-9,062	247,041	116,288
191,056	-9,034	246,830	116,202
192,071	-8,946	246,670	116,189
193,086	-9,091	246,591	116,021
194,100	-9,036	246,399	115,966
195,115	-9,056	246,237	115,863
196,129	-9,171	246,026	115,658
197,144	-8,984	245,751	115,673
198,159	-8,948	245,467	115,559
199,173	-8,823	245,310	115,578
200,188	-9,300	245,153	115,100
201,202	-9,397	244,980	114,928
202,217	-9,535	244,757	114,700
203,232	-9,709	244,458	114,406
204,246	-9,280	244,471	114,755
205,261	-8,859	244,175	114,952
206,275	-9,850	243,969	114,031
207,290	-6,837	245,220	117,090
208,304	-0,416	247,154	123,327
209,319	2,485	247,830	126,059
210,334	2,825	247,734	126,280
211,348	3,083	247,717	126,474
212,363	3,222	247,795	126,618
213,377	3,590	247,597	126,809
214,392	3,171	247,517	126,411
215,407	3,400	247,309	126,483
216,421	3,313	247,016	126,249
217,436	3,391	247,036	126,312
218,450	3,583	246,752	126,314
219,465	3,405	246,521	126,039
220,480	3,055	246,462	125,709
221,494	3,128	246,263	125,656
222,509	3,072	246,091	125,511
223,523	3,291	245,916	125,591
224,538	2,840	245,551	125,024
225,553	2,801	245,559	124,984
226,567	2,861	245,285	124,883
227,582	3,018	245,117	124,915
228,596	2,972	245,129	124,872
229,611	2,779	244,861	124,567
230,626	2,855	244,700	124,536
231,640	3,019	244,576	124,595
232,655	3,071	244,331	124,502
233,669	2,897	244,328	124,347
234,684	2,831	243,957	124,094
235,699	3,208	244,030	124,426
236,713	3,417	243,781	124,458
237,728	2,960	243,636	124,003
238,742	2,922	243,503	123,893
239,757	2,840	243,081	123,600
240,772	2,857	243,103	123,614
241,786	2,936	243,152	123,693
242,801	2,994	242,745	123,522
243,815	2,779	242,645	123,285
244,830	2,865	242,544	123,293
245,844	3,049	242,343	123,328
246,859	2,958	242,083	123,111
247,874	2,988	241,828	122,995
248,888	3,039	241,750	122,985
249,903	2,898	241,819	122,896
250,917	3,217	241,710	123,086
251,932	3,185	241,459	122,922
252,947	3,207	241,300	122,847
253,961	2,780	241,126	122,405
254,976	3,011	241,022	122,527
255,990	3,150	240,885	122,558
257,005	2,885	240,604	122,192
258,020	2,763	240,356	121,957
259,034	2,952	240,254	122,045
260,049	2,995	240,141	122,012
261,063	2,858	240,003	121,821
262,078	2,855	239,732	121,671
263,093	3,029	239,804	121,835
264,107	3,233	239,546	121,856
265,122	2,886	239,449	121,519
266,136	3,019	239,193	121,484
267,151	3,173	239,118	121,558
268,166	3,001	238,862	121,279
269,180	2,637	238,814	120,956
270,195	3,371	238,705	121,472
271,209	3,474	238,658	121,519
272,224	3,018	238,302	120,966
273,239	2,745	238,128	120,650
274,253	2,766	237,953	120,568
275,268	2,903	237,920	120,649
276,282	2,894	237,871	120,606
277,297	2,938	237,321	120,351
278,312	3,056	237,374	120,460
279,326	2,936	237,230	120,282
280,341	2,787	237,165	120,121
281,355	3,150	236,920	120,272
282,370	3,320	236,784	120,325
283,384	3,107	236,653	120,081
284,399	2,903	236,307	119,735
285,414	2,543	236,314	119,445
286,428	2,868	236,142	119,602
287,443	2,913	236,061	119,586
288,457	2,943	235,933	119,533
289,472	3,191	235,768	119,633
290,487	2,962	235,549	119,333
291,501	2,918	235,377	119,200
292,516	2,608	235,105	118,811
293,530	2,538	235,040	118,712
294,545	2,882	235,000	118,950
295,560	2,954	234,862	118,926
296,574	2,645	234,691	118,588
297,589	2,657	234,601	118,541
298,603	3,151	234,557	118,892
299,618	3,207	234,281	118,785
300,633	3,183	234,078	118,653
301,647	3,127	234,144	118,632
302,662	3,729	233,906	118,968
303,676	3,589	233,778	118,784
304,691	3,476	233,621	118,606
305,706	3,321	233,399	118,363
306,720	3,326	233,242	118,276
307,735	3,105	233,189	118,068
308,749	3,013	232,978	117,879
309,764	3,068	232,656	117,749
310,779	2,849	232,456	117,469
311,793	2,723	232,292	117,279
312,808	2,819	232,144	117,267
313,822	2,558	232,070	117,019
314,837	2,775	231,900	117,089
315,852	2,769	231,727	116,987
316,866	3,051	231,613	117,135
317,881	3,252	231,619	117,281
318,895	3,322	231,476	117,253
319,910	3,418	231,407	117,280
320,925	2,991	231,239	116,858
321,939	2,864	231,007	116,634
322,954	3,184	230,887	116,807
323,968	2,944	230,792	116,565
324,983	2,709	230,545	116,251
325,997	2,964	230,323	116,323
327,012	2,857	230,243	116,190
328,027	3,196	230,192	116,412
329,041	3,451	230,123	116,561
330,056	3,784	230,055	116,769
331,070	3,747	229,888	116,646
332,085	3,237	229,578	116,091
333,100	2,918	229,438	115,768
334,114	3,331	229,262	115,982
335,129	3,467	229,122	116,004
336,143	3,382	228,974	115,854
337,158	3,497	228,982	115,935
338,173	3,546	228,869	115,905
339,187	3,351	228,545	115,583
340,202	3,184	228,466	115,407
341,216	3,127	228,348	115,294
342,231	3,147	228,165	115,206
343,246	2,911	228,162	115,017
344,260	3,437	227,978	115,309
345,275	3,634	227,892	115,404
346,289	3,469	227,799	115,222
347,304	3,507	227,675	115,178
348,319	3,537	227,425	115,064
349,333	3,333	227,166	114,770
350,348	2,990	226,922	114,379
351,362	3,305	226,942	114,615
352,377	3,083	226,651	114,292
353,392	3,012	226,506	114,156
354,406	3,223	226,369	114,234
355,421	195,920	1322,200	1401,155
356,435	157,067	1455,717	1401,160
