DTS Sentinel unit serial number:	SN410029Multiplexer serial number:	ORYXHardware model number:	OX2-SRSoftware version number:	ORYX F/W v4,00 Oryx Data Collector v3.7.2.0data status	okinstallation	B5 Nyhavnadifferential loss correction	single-endedforward channel	channel 2reverse channel	N/Adate	2023/12/12time	23:12:13forward acquisition time	300,00reverse acquisition time	0,00gamma	499,1914k internal	0,3158k external	0,3158temperature offset calibration	1,0000default loss term (dB/km)	0,3820temperature slope calibration	1,0000multiplexer offset coefficient	1,0000multiplexer slope coefficient	1,0000fibre end	0,00T internal ref (°C)	14,50T ext. ref 1 (°C)	-2,05T ext. ref 2 (°C)	-2,37length (m)	temperature (°C)	Stokes	anti-Stokes-744,400	81,699	0,086	-0,068
-743,385	-67,370	-0,304	-0,087
-742,371	-123,487	0,261	0,030
-741,356	-118,235	-0,135	0,018
-740,342	-200,000	-0,011	0,137
-739,327	-128,401	-0,404	-0,042
-738,312	-44,186	0,115	0,042
-737,298	-183,699	-0,508	0,006
-736,283	143,259	0,071	0,070
-735,269	-98,272	-0,280	0,052
-734,254	-200,000	-0,004	0,154
-733,239	-41,713	-0,389	-0,146
-732,225	-88,725	0,147	0,032
-731,210	800,000	0,042	0,106
-730,196	-86,205	-0,079	-0,018
-729,181	224,930	-0,046	-0,054
-728,167	2,545	0,066	0,035
-727,152	-75,960	-0,092	-0,024
-726,137	692,711	-0,042	0,082
-725,123	-142,802	-0,086	-0,006
-724,108	800,000	0,050	-0,139
-723,094	439,799	-0,032	-0,051
-722,079	-200,000	-0,022	0,111
-721,064	-102,278	0,087	-0,015
-720,050	-4,676	-0,122	-0,062
-719,035	-21,145	0,007	0,003
-718,021	-200,000	-0,010	0,048
-717,006	-200,000	0,010	-0,043
-715,991	-200,000	0,003	-0,092
-714,977	53,087	-0,103	0,072
-713,962	800,000	-0,026	-0,060
-712,948	152,443	0,057	0,058
-711,933	408,273	0,066	-0,104
-710,918	-107,531	-0,066	-0,011
-709,904	-99,102	-0,025	0,005
-708,889	15,620	-0,015	0,009
-707,875	800,000	0,050	-0,121
-706,860	217,212	0,039	0,046
-705,845	-17,409	0,128	-0,059
-704,831	-131,862	0,077	0,007
-703,816	233,376	0,024	-0,029
-702,802	-73,517	-0,084	0,022
-701,787	223,711	-0,045	-0,053
-700,772	-200,000	0,007	-0,179
-699,758	-200,000	0,008	-0,081
-698,743	53,757	-0,124	-0,088
-697,729	-200,000	-0,001	0,104
-696,714	40,794	-0,027	-0,018
-695,699	23,913	-0,016	0,010
-694,685	36,776	-0,066	0,043
-693,670	-73,911	-0,075	0,020
-692,656	3,319	0,052	-0,028
-691,641	-89,383	0,138	0,030
-690,627	-200,000	0,008	0,096
-689,612	121,871	0,067	-0,061
-688,597	800,000	0,034	0,100
-687,583	-200,000	-0,019	-0,064
-686,568	174,887	0,187	-0,199
-685,554	-200,000	-0,012	-0,043
-684,539	-62,186	-0,101	0,031
-683,524	255,708	0,129	0,162
-682,510	148,263	0,020	-0,020
-681,495	278,607	-0,085	-0,111
-680,481	-200,000	-0,003	-0,092
-679,466	-33,032	-0,125	0,051
-678,451	-200,000	0,022	-0,088
-677,437	-200,000	-0,004	-0,102
-676,422	36,094	0,039	-0,025
-675,408	2,473	0,087	0,046
-674,393	119,925	-0,066	-0,060
-673,378	365,854	0,047	-0,070
-672,364	-117,097	0,041	0,005
-671,349	17,902	-0,051	-0,030
-670,335	16,746	0,094	-0,055
-669,320	-62,710	0,133	0,040
-668,305	-200,000	-0,014	0,053
-667,291	662,372	-0,112	-0,214
-666,276	-32,089	-0,124	-0,051
-665,262	136,735	-0,045	-0,043
-664,247	219,607	-0,038	0,044
-663,232	-63,377	-0,103	0,031
-662,218	59,462	0,056	-0,041
-661,203	800,000	0,026	0,063
-660,189	800,000	0,026	0,057
-659,174	-38,157	0,028	-0,011
-658,159	-200,000	0,005	0,023
-657,145	-200,000	-0,000	-0,046
-656,130	632,140	0,046	-0,086
-655,116	329,105	0,065	0,092
-654,101	431,486	0,019	0,031
-653,086	-78,729	-0,123	-0,031
-652,072	501,812	0,048	-0,081
-651,057	72,787	-0,138	0,106
-650,043	800,000	-0,011	-0,030
-649,028	800,000	0,030	-0,085
-648,014	468,867	0,077	0,128
-646,999	321,867	0,100	-0,140
-645,984	-11,724	-0,044	0,021
-644,970	-3,673	-0,146	0,074
-643,955	315,689	-0,025	-0,035
-642,941	-200,000	-0,026	-0,091
-641,926	-149,994	-0,091	-0,005
-640,911	172,633	0,029	0,031
-639,897	77,021	-0,059	-0,046
-638,882	-79,193	-0,112	0,028
-637,868	800,000	-0,020	0,041
-636,853	-127,242	-0,018	0,002
-635,838	-158,685	0,097	-0,004
-634,824	8,189	-0,092	-0,051
-633,809	800,000	0,036	-0,091
-632,795	-15,393	0,117	0,055
-631,780	-200,000	-0,018	0,063
-630,765	-124,747	-0,114	-0,013
-629,751	-200,000	-0,024	-0,102
-628,736	-11,655	0,106	0,051
-627,722	800,000	0,039	-0,125
-626,707	-200,000	-0,022	-0,109
-625,692	483,859	0,047	0,079
-624,678	-74,097	-0,080	0,021
-623,663	130,504	-0,080	-0,076
-622,649	555,761	-0,032	-0,057
-621,634	-78,747	-0,062	0,015
-620,619	-200,000	-0,004	-0,056
-619,605	142,275	-0,084	-0,082
-618,590	15,867	-0,031	-0,018
-617,576	-86,960	-0,170	-0,038
-616,561	300,169	0,030	0,041
-615,546	-200,000	-0,010	-0,045
-614,532	-53,040	-0,116	-0,039
-613,517	800,000	-0,013	-0,034
-612,503	-200,000	0,036	-0,183
-611,488	-126,193	0,208	0,023
-610,474	-99,590	-0,117	-0,021
-609,459	324,142	0,038	-0,053
-608,444	262,381	-0,041	0,052
-607,430	-138,643	-0,048	-0,004
-606,415	-53,246	-0,088	0,029
-605,401	-200,000	0,007	-0,085
-604,386	157,373	-0,053	0,054
-603,371	800,000	-0,040	0,119
-602,357	-200,000	-0,013	-0,064
-601,342	155,119	-0,117	-0,118
-600,328	571,080	0,034	-0,061
-599,313	-200,000	0,003	-0,089
-598,298	800,000	0,053	-0,129
-597,284	2,786	-0,092	-0,049
-596,269	-200,000	0,003	-0,078
-595,255	172,883	-0,097	-0,102
-594,240	800,000	-0,020	-0,054
-593,225	800,000	-0,021	-0,052
-592,211	211,644	-0,067	-0,077
-591,196	4,550	-0,027	0,014
-590,182	-65,264	-0,027	0,008
-589,167	800,000	-0,035	0,106
-588,152	-74,579	-0,063	-0,016
-587,138	423,939	0,043	0,069
-586,123	-16,047	-0,127	-0,059
-585,109	394,993	0,046	0,071
-584,094	-28,343	-0,132	-0,056
-583,079	58,557	0,085	0,061
-582,065	-46,956	0,137	0,049
-581,050	-95,884	0,101	-0,020
-580,036	-200,000	-0,016	0,084
-579,021	92,058	-0,122	-0,100
-578,006	279,251	-0,034	0,045
-576,992	-40,572	-0,055	0,021
-575,977	594,152	0,015	0,027
-574,963	134,747	-0,051	-0,049
-573,948	800,000	0,023	0,070
-572,934	-4,011	-0,046	-0,023
-571,919	295,966	-0,063	-0,085
-570,904	70,358	-0,089	0,067
-569,890	-104,908	-0,137	0,023
-568,875	-200,000	-0,001	0,061
-567,861	-106,377	-0,014	0,002
-566,846	-155,284	0,106	0,005
-565,831	800,000	-0,021	0,044
-564,817	800,000	-0,034	-0,097
-563,802	28,212	-0,058	-0,036
-562,788	-127,965	0,102	-0,011
-561,773	-200,000	-0,053	0,189
-560,758	275,640	0,077	0,101
-559,744	800,000	-0,027	-0,078
-558,729	800,000	0,021	0,046
-557,715	438,760	-0,065	-0,104
-556,700	51,329	0,082	-0,057
-555,685	696,343	-0,021	0,040
-554,671	544,367	0,008	-0,014
-553,656	3,309	-0,087	-0,046
-552,642	-200,000	-0,015	0,179
-551,627	800,000	0,022	0,047
-550,612	-200,000	0,004	-0,094
-549,598	22,634	-0,058	-0,035
-548,583	-200,000	-0,005	0,063
-547,569	440,462	-0,046	-0,073
-546,554	-200,000	0,015	0,105
-545,539	-200,000	0,007	0,027
-544,525	131,328	0,086	0,081
-543,510	-2,867	-0,070	0,036
-542,496	83,293	-0,019	-0,015
-541,481	-200,000	-0,010	-0,057
-540,466	-200,000	-0,010	-0,067
-539,452	-200,000	-0,033	0,131
-538,437	116,768	0,141	0,127
-537,423	-194,618	0,047	-0,000
-536,408	-66,360	-0,091	0,026
-535,393	800,000	0,038	-0,086
-534,379	800,000	0,031	-0,080
-533,364	800,000	0,021	0,063
-532,350	739,754	0,048	0,094
-531,335	-144,389	0,025	0,002
-530,321	155,336	0,027	-0,027
-529,306	230,745	-0,058	-0,070
-528,291	800,000	0,039	-0,098
-527,277	422,374	-0,059	-0,092
-526,262	-200,000	-0,005	0,037
-525,248	288,679	0,031	0,041
-524,233	-81,049	0,069	0,017
-523,218	-200,000	0,001	-0,032
-522,204	800,000	-0,033	-0,091
-521,189	183,070	0,063	0,068
-520,175	104,200	-0,077	0,066
-519,160	-200,000	-0,019	-0,111
-518,145	157,031	0,041	0,042
-517,131	800,000	0,025	-0,068
-516,116	-83,336	0,120	-0,028
-515,102	-43,436	-0,212	-0,078
-514,087	272,754	-0,072	-0,093
-513,072	-200,000	0,019	0,075
-512,058	-200,000	0,031	-0,141
-511,043	-59,094	-0,083	0,026
-510,029	155,714	-0,058	-0,058
-509,014	-200,000	-0,015	0,105
-507,999	-107,251	0,067	0,011
-506,985	208,557	-0,101	0,115
-505,970	-200,000	-0,035	-0,156
-504,956	-95,567	0,036	0,007
-503,941	-200,000	0,013	0,061
-502,926	-8,083	-0,044	0,022
-501,912	800,000	0,065	0,138
-500,897	800,000	0,037	0,097
-499,883	-200,000	0,016	-0,131
-498,868	-129,580	-0,062	0,006
-497,853	-81,993	0,060	0,014
-496,839	-200,000	-0,042	0,194
-495,824	429,906	-0,064	0,101
-494,810	26,173	0,119	0,072
-493,795	-25,314	-0,046	-0,020
-492,781	-143,483	0,032	0,002
-491,766	-22,235	0,052	-0,023
-490,751	-10,071	-0,100	-0,049
-489,737	-200,000	-0,016	0,065
-488,722	-200,000	0,012	0,173
-487,708	-131,065	0,141	0,014
-486,693	739,473	0,032	0,063
-485,678	431,114	-0,119	0,189
-484,664	800,000	0,036	-0,078
-483,649	640,748	-0,028	0,053
-482,635	64,635	-0,083	-0,061
-481,620	-20,313	0,105	-0,047
-480,605	-10,433	0,045	-0,022
-479,591	-126,789	-0,063	0,007
-478,576	197,095	-0,070	-0,078
-477,562	-200,000	-0,025	-0,080
-476,547	-200,000	0,108	-0,000
-475,532	9,531	0,101	-0,056
-474,518	-96,268	0,189	-0,036
-473,503	256,878	0,099	0,125
-472,489	-3,530	-0,046	-0,023
-471,474	407,456	0,075	-0,116
-470,459	-136,777	-0,089	0,007
-469,445	800,000	0,054	0,128
-468,430	138,201	-0,074	-0,071
-467,416	149,290	0,064	-0,063
-466,401	-200,000	0,023	-0,080
-465,386	-200,000	0,015	-0,081
-464,372	611,117	0,037	0,068
-463,357	448,239	-0,055	-0,089
-462,343	-71,885	-0,056	-0,015
-461,328	158,170	-0,048	0,049
-460,313	-40,814	0,038	-0,014
-459,299	-200,000	-0,003	-0,018
-458,284	255,067	0,064	0,080
-457,270	-200,000	-0,010	0,068
-456,255	-47,436	-0,100	-0,035
-455,241	-200,000	-0,014	-0,131
-454,226	154,572	0,098	0,099
-453,211	150,211	0,045	-0,045
-452,197	-134,389	0,120	0,011
-451,182	-95,251	-0,056	-0,011
-450,168	-24,152	-0,035	-0,015
-449,153	-72,012	-0,136	0,037
-448,138	-200,000	0,021	0,098
-447,124	-200,000	0,003	0,231
-446,109	800,000	-0,037	0,076
-445,095	140,951	0,108	-0,104
-444,080	41,264	0,046	-0,030
-443,065	246,192	0,034	-0,041
-442,051	-117,924	0,201	-0,026
-441,036	3,199	-0,061	0,032
-440,022	162,155	0,013	0,013
-439,007	-31,525	-0,090	-0,037
-437,992	-200,000	-0,014	-0,074
-436,978	800,000	0,045	0,123
-435,963	171,786	-0,086	0,090
-434,949	-111,957	-0,105	0,015
-433,934	317,785	0,080	-0,110
-432,919	-56,266	-0,190	-0,061
-431,905	240,761	0,039	-0,047
-430,890	66,765	0,105	-0,078
-429,876	385,339	0,040	-0,061
-428,861	-139,343	-0,061	0,005
-427,846	-200,000	0,009	-0,098
-426,832	-200,000	-0,004	0,022
-425,817	-20,218	-0,151	0,067
-424,803	42,186	-0,056	-0,037
-423,788	-200,000	-0,000	-0,134
-422,773	-200,000	0,017	0,093
-421,759	49,345	-0,040	0,027
-420,744	-200,000	-0,011	0,046
-419,730	-200,000	0,006	-0,022
-418,715	-200,000	-0,018	-0,118
-417,701	793,107	-0,021	-0,043
-416,686	-86,440	0,043	-0,010
-415,671	-6,636	0,122	-0,060
-414,657	129,775	0,065	0,061
-413,642	325,548	-0,051	-0,071
-412,628	160,567	-0,104	-0,106
-411,613	144,255	-0,037	-0,035
-410,598	-63,093	-0,094	0,028
-409,584	525,143	0,072	0,124
-408,569	-200,000	0,034	0,140
-407,555	-80,843	0,080	0,019
-406,540	438,727	-0,027	-0,043
-405,525	-145,082	-0,027	-0,002
-404,511	-38,383	0,132	0,051
-403,496	156,939	-0,112	-0,112
-402,482	-200,000	0,010	-0,044
-401,467	564,709	0,052	0,092
-400,452	539,430	-0,067	0,117
-399,438	-200,000	0,017	0,068
-398,423	-15,795	-0,111	0,051
-397,409	-200,000	0,001	0,012
-396,394	84,691	-0,085	-0,067
-395,379	78,420	0,103	0,080
-394,365	800,000	-0,025	0,062
-393,350	-200,000	-0,017	-0,061
-392,336	109,081	-0,080	-0,069
-391,321	246,774	0,007	-0,008
-390,306	-92,003	-0,081	0,017
-389,292	-103,697	-0,128	0,022
-388,277	-34,688	0,169	-0,067
-387,263	194,539	0,058	0,064
-386,248	-200,000	0,014	0,099
-385,233	504,968	-0,045	0,076
-384,219	-196,006	-0,081	0,000
-383,204	800,000	-0,037	-0,095
-382,190	800,000	-0,033	0,070
-381,175	-151,187	0,068	0,004
-380,160	2,507	-0,061	-0,032
-379,146	-27,908	0,129	0,054
-378,131	7,102	-0,111	0,060
-377,117	-72,655	0,105	-0,028
-376,102	-200,000	-0,036	-0,121
-375,088	-200,000	0,029	-0,154
-374,073	800,000	0,027	0,068
-373,058	-142,592	0,190	0,013
-372,044	70,818	0,025	-0,019
-371,029	-43,603	-0,028	-0,010
-370,015	497,440	0,058	0,097
-369,000	278,416	-0,082	-0,107
-367,985	-93,173	-0,158	-0,032
-366,971	30,970	0,081	-0,051
-365,956	-146,777	0,102	-0,006
-364,942	-18,056	-0,080	-0,036
-363,927	800,000	-0,045	0,121
-362,912	-200,000	-0,043	0,149
-361,898	11,135	-0,022	-0,012
-360,883	321,161	-0,050	0,069
-359,869	-200,000	0,006	-0,076
-358,854	-176,690	0,116	-0,002
-357,839	95,712	0,026	-0,022
-356,825	-200,000	0,037	0,136
-355,810	168,616	-0,062	0,064
-354,796	-22,304	0,037	-0,016
-353,781	-200,000	-0,011	-0,092
-352,766	345,334	0,061	-0,087
-351,752	-200,000	0,002	0,113
-350,737	192,048	0,013	-0,014
-349,723	96,040	-0,042	-0,035
-348,708	-74,875	-0,068	0,018
-347,693	133,290	0,116	-0,109
-346,679	-175,747	-0,144	-0,003
-345,664	800,000	0,015	-0,030
-344,650	613,666	0,069	0,126
-343,635	95,981	0,079	-0,065
-342,620	83,649	-0,024	0,019
-341,606	-200,000	0,002	0,120
-340,591	-38,345	0,051	0,020
-339,577	79,332	0,057	0,044
-338,562	-74,216	-0,117	-0,031
-337,548	-123,287	0,021	0,002
-336,533	11,351	0,114	0,063
-335,518	-89,912	0,084	0,018
-334,504	-200,000	-0,014	-0,046
-333,489	-200,000	-0,019	0,140
-332,475	63,491	0,062	0,045
-331,460	492,646	0,098	-0,164
-330,445	-100,859	-0,182	-0,032
-329,431	499,537	0,072	0,120
-328,416	77,103	0,089	0,069
-327,402	290,582	-0,082	-0,108
-326,387	86,349	-0,033	-0,026
-325,372	-17,938	-0,055	-0,025
-324,358	83,678	-0,085	-0,067
-323,343	-12,284	-0,051	-0,024
-322,329	335,929	0,099	-0,140
-321,314	-30,854	-0,059	0,024
-320,299	800,000	-0,056	0,161
-319,285	28,089	-0,069	0,042
-318,270	-48,983	-0,049	-0,017
-317,256	800,000	-0,043	-0,104
-316,241	800,000	0,030	-0,091
-315,226	-97,585	0,065	0,012
-314,212	-107,759	0,040	0,006
-313,197	-200,000	0,029	0,151
-312,183	-63,236	-0,019	-0,006
-311,168	-95,023	-0,043	0,008
-310,153	800,000	0,003	-0,007
-309,139	101,074	-0,049	0,041
-308,124	-200,000	0,005	-0,027
-307,110	800,000	-0,013	0,028
-306,095	483,778	0,072	0,119
-305,080	33,164	-0,050	-0,031
-304,066	800,000	-0,022	-0,048
-303,051	543,231	-0,033	0,057
-302,037	472,704	-0,066	0,108
-301,022	58,356	-0,020	0,014
-300,008	-180,681	0,137	-0,002
-298,993	-200,000	-0,005	0,032
-297,978	228,866	-0,047	0,055
-296,964	52,231	0,065	-0,045
-295,949	189,585	0,026	-0,029
-294,935	31,888	0,132	0,082
-293,920	48,237	-0,039	0,026
-292,905	-150,393	0,087	-0,005
-291,891	176,606	-0,029	0,031
-290,876	-200,000	0,005	0,066
-289,862	800,000	0,041	-0,085
-288,847	111,527	-0,106	0,092
-287,832	-121,308	0,119	0,014
-286,818	79,629	0,069	-0,054
-285,803	-200,000	-0,022	-0,097
-284,789	68,193	0,114	-0,085
-283,774	38,831	0,065	0,042
-282,759	289,079	-0,039	-0,051
-281,745	-200,000	0,011	-0,064
-280,730	-33,091	-0,031	-0,012
-279,716	-200,000	-0,005	0,017
-278,701	725,459	-0,013	0,025
-277,686	800,000	0,036	0,107
-276,672	249,912	0,050	0,061
-275,657	-132,299	0,037	0,003
-274,643	-200,000	0,001	0,153
-273,628	-29,598	-0,135	-0,056
-272,613	-12,349	0,060	0,028
-271,599	-146,337	0,113	-0,007
-270,584	-74,355	0,073	0,019
-269,570	800,000	0,031	0,085
-268,555	30,241	0,056	-0,035
-267,540	739,153	0,052	-0,102
-266,526	-200,000	0,025	-0,089
-265,511	-132,834	0,102	-0,009
-264,497	125,904	0,038	-0,035
-263,482	-200,000	-0,007	0,117
-262,467	-200,000	-0,023	-0,132
-261,453	-109,844	-0,013	0,002
-260,438	-200,000	-0,008	0,040
-259,424	725,124	0,035	0,068
-258,409	-168,705	0,059	0,002
-257,395	800,000	0,023	-0,073
-256,380	-120,972	0,098	-0,012
-255,365	800,000	-0,040	0,095
-254,351	-146,922	0,091	0,006
-253,336	-98,790	-0,091	-0,017
-252,322	-124,260	-0,044	0,005
-251,307	30,877	0,038	0,023
-250,292	27,220	-0,088	-0,053
-249,278	-200,000	-0,017	-0,082
-248,263	-200,000	-0,018	0,085
-247,249	-68,129	0,169	0,047
-246,234	-200,000	-0,031	-0,130
-245,219	-48,821	-0,083	0,029
-244,205	-158,730	-0,128	-0,005
-243,190	-18,243	0,120	-0,054
-242,176	-32,846	-0,068	-0,027
-241,161	-200,000	0,002	0,024
-240,146	-91,994	0,106	0,022
-239,132	185,259	0,039	0,042
-238,117	414,649	-0,027	-0,042
-237,103	104,634	0,139	-0,118
-236,088	800,000	0,017	-0,045
-235,073	-79,181	0,141	0,034
-234,059	334,098	0,027	0,038
-233,044	396,190	-0,069	0,104
-232,030	-56,301	0,038	-0,012
-231,015	-200,000	0,010	-0,078
-230,000	164,846	0,046	-0,047
-228,986	743,419	0,044	0,086
-227,971	800,000	-0,033	-0,105
-226,957	398,208	0,066	0,100
-225,942	677,928	0,036	0,067
-224,927	-200,000	-0,002	0,148
-223,913	156,274	0,052	-0,052
-222,898	-200,000	-0,028	-0,119
-221,884	-195,012	-0,126	-0,001
-220,869	-11,689	0,067	0,031
-219,855	525,259	0,099	0,169
-218,840	25,249	-0,017	0,010
-217,825	11,176	-0,086	-0,047
-216,811	-200,000	-0,011	0,042
-215,796	2,527	-0,058	0,030
-214,782	-54,110	-0,077	-0,025
-213,767	154,469	-0,092	0,091
-212,752	800,000	0,055	0,118
-211,738	-55,861	0,079	0,025
-210,723	-200,000	-0,006	0,119
-209,709	95,659	0,082	-0,068
-208,694	-200,000	-0,006	-0,205
-207,679	138,728	-0,093	-0,088
-206,665	-20,392	0,051	-0,022
-205,650	-100,625	0,108	-0,019
-204,636	-178,492	0,069	-0,001
-203,621	383,869	0,006	-0,009
-202,606	198,474	-0,102	-0,112
-201,592	55,511	-0,137	-0,095
-200,577	112,970	0,087	0,076
-199,563	-200,000	0,011	-0,148
-198,548	800,000	-0,048	0,109
-197,533	-117,411	-0,050	0,006
-196,519	-200,000	0,013	-0,048
-195,504	-158,737	-0,053	0,002
-194,490	800,000	-0,043	-0,103
-193,475	-7,909	-0,080	-0,039
-192,460	505,472	0,105	-0,176
-191,446	-66,371	-0,060	-0,017
-190,431	-135,891	0,017	-0,001
-189,417	1,144	-0,060	0,031
-188,402	-200,000	-0,028	0,166
-187,387	-200,000	0,012	-0,112
-186,373	-176,223	-0,103	0,002
-185,358	-71,878	0,066	-0,018
-184,344	800,000	0,018	-0,045
-183,329	268,197	0,045	-0,057
-182,315	-36,693	0,147	-0,057
-181,300	-72,379	-0,151	-0,040
-180,285	-200,000	0,009	-0,070
-179,271	800,000	0,059	0,183
-178,256	-109,125	-0,098	-0,015
-177,242	-121,011	0,087	0,010
-176,227	-200,000	-0,004	-0,061
-175,212	124,252	-0,057	0,052
-174,198	-200,000	-0,042	0,168
-173,183	-200,000	0,003	-0,012
-172,169	17,171	-0,132	0,075
-171,154	368,417	0,016	0,023
-170,139	-200,000	0,011	-0,046
-169,125	-200,000	-0,019	-0,062
-168,110	-176,292	0,049	-0,001
-167,096	-74,547	0,072	-0,018
-166,081	107,146	0,036	0,031
-165,066	21,722	0,061	0,036
-164,052	146,807	-0,027	-0,026
-163,037	42,644	0,082	0,054
-162,023	-200,000	-0,038	0,133
-161,008	-77,864	0,074	-0,018
-159,993	-200,000	-0,001	0,119
-158,979	299,862	-0,079	0,106
-157,964	234,993	0,070	-0,083
-156,950	594,615	-0,075	0,134
-155,935	-161,607	0,124	0,004
-154,920	-118,834	0,161	-0,020
-153,906	169,975	0,047	0,049
-152,891	-103,951	0,148	0,025
-151,877	-196,187	0,121	-0,001
-150,862	-62,723	-0,165	-0,049
-149,847	113,902	0,100	0,088
-148,833	-21,476	0,076	-0,033
-147,818	-157,578	0,042	-0,002
-146,804	-200,000	0,010	-0,036
-145,789	375,656	0,026	-0,039
-144,775	-183,026	0,058	0,001
-143,760	800,000	-0,018	0,038
-142,745	13,958	0,083	0,046
-141,731	-200,000	-0,022	0,172
-140,716	800,000	0,089	0,179
-139,702	-200,000	0,019	0,083
-138,687	-68,242	-0,057	-0,016
-137,672	-47,178	-0,042	-0,015
-136,658	-200,000	-0,009	-0,036
-135,643	85,485	-0,164	-0,130
-134,629	800,000	0,089	-0,198
-133,614	-50,521	0,053	-0,018
-132,599	120,904	-0,050	0,045
-131,585	-25,836	-0,058	-0,025
-130,570	160,108	-0,021	-0,022
-129,556	-9,563	-0,035	-0,017
-128,541	800,000	0,035	-0,074
-127,526	331,083	-0,120	-0,167
-126,512	800,000	0,033	-0,082
-125,497	-200,000	-0,018	0,145
-124,483	125,564	0,059	0,053
-123,468	-87,839	-0,129	0,028
-122,453	6,685	0,037	-0,020
-121,439	800,000	-0,035	-0,096
-120,424	-200,000	-0,030	-0,116
-119,410	-200,000	0,012	-0,062
-118,395	-200,000	-0,006	-0,052
-117,380	-16,773	0,171	0,077
-116,366	13,125	0,121	0,067
-115,351	800,000	-0,034	-0,087
-114,337	132,100	0,112	-0,104
-113,322	138,494	0,061	-0,058
-112,307	568,285	0,116	-0,203
-111,293	325,806	0,077	0,107
-110,278	-200,000	0,023	0,084
-109,264	157,240	-0,034	0,034
-108,249	-0,739	0,087	-0,044
-107,234	-200,000	0,014	-0,057
-106,220	-69,351	-0,105	0,029
-105,205	108,808	0,023	0,020
-104,191	800,000	-0,077	0,160
-103,176	-2,021	-0,089	-0,045
-102,162	219,762	-0,085	0,098
-101,147	105,353	-0,056	-0,048
-100,132	51,063	-0,072	-0,049
-99,118	-200,000	0,000	0,012
-98,103	-113,991	0,086	-0,012
-97,089	139,270	-0,033	-0,031
-96,074	-22,622	0,057	-0,025
-95,059	225,634	0,033	-0,039
-94,045	332,907	-0,037	-0,052
-93,030	210,838	0,073	-0,082
-92,016	800,000	-0,010	-0,031
-91,001	395,263	0,018	0,028
-89,986	292,193	0,064	0,084
-88,972	-200,000	0,013	0,080
-87,957	44,572	-0,115	0,076
-86,943	177,528	-0,163	-0,171
-85,928	160,428	-0,098	-0,098
-84,913	-200,000	-0,002	-0,040
-83,899	-86,079	-0,055	0,012
-82,884	37,035	-0,034	0,021
-81,870	800,000	0,065	-0,168
-80,855	432,906	-0,014	0,023
-79,840	800,000	-0,021	-0,064
-78,826	213,372	0,032	0,036
-77,811	504,412	-0,058	-0,097
-76,797	-92,212	0,092	0,018
-75,782	0,302	0,025	-0,013
-74,767	-127,212	0,135	0,014
-73,753	-79,706	0,084	0,020
-72,738	192,697	0,102	-0,111
-71,724	800,000	0,011	0,023
-70,709	38,408	-0,119	-0,076
-69,694	-5,726	-0,099	-0,049
-68,680	371,078	0,050	-0,072
-67,665	-106,293	-0,067	-0,011
-66,651	5,944	0,045	0,024
-65,636	436,616	-0,025	-0,040
-64,622	-200,000	-0,010	0,050
-63,607	-200,000	0,002	-0,214
-62,592	-200,000	-0,004	0,135
-61,578	-141,530	-0,045	0,003
-60,563	-200,000	0,002	0,099
-59,549	413,610	0,042	-0,065
-58,534	12,444	-2,026	-1,118
-57,519	-200,000	-0,142	-0,880
-56,505	-200,000	-1,442	-5,093
-55,490	33,506	0,958	0,596
-54,476	800,000	5,295	12,032
-53,461	-200,000	18,178	300,581
-52,446	800,000	734,252	2269,672
-51,432	544,373	1650,877	2839,866
-50,417	109,619	1638,624	1408,780
-49,403	74,511	1288,840	971,290
-48,388	30,989	1028,958	631,387
-47,373	20,132	990,963	572,203
-46,359	18,061	978,549	558,214
-45,344	14,844	974,545	545,365
-44,330	15,157	973,065	545,543
-43,315	14,594	971,051	542,550
-42,300	14,485	970,204	541,700
-41,286	14,458	969,325	541,099
-40,271	14,532	968,113	540,642
-39,257	14,530	967,351	540,189
-38,242	14,505	966,541	539,632
-37,227	14,580	965,466	539,256
-36,213	14,526	964,775	538,673
-35,198	14,466	963,976	538,009
-34,184	14,583	962,954	537,797
-33,169	14,424	962,213	536,849
-32,154	14,552	961,130	536,636
-31,140	14,518	960,288	536,034
-30,125	14,592	959,703	535,926
-29,111	14,504	958,755	535,091
-28,096	14,474	958,098	534,607
-27,082	14,573	957,275	534,445
-26,067	14,603	956,512	534,094
-25,052	14,549	955,689	533,441
-24,038	14,551	955,224	533,166
-23,023	14,483	954,509	532,527
-22,009	14,589	953,869	532,491
-20,994	14,517	953,336	531,939
-19,979	14,592	952,508	531,697
-18,965	14,518	951,907	531,105
-17,950	14,475	951,481	530,707
-16,936	14,511	950,687	530,358
-15,921	14,514	949,942	529,932
-14,906	14,451	949,221	529,307
-13,892	14,433	948,745	528,963
-12,877	14,484	947,877	528,621
-11,863	14,370	947,543	528,051
-10,848	14,386	947,052	527,806
-9,833	14,527	946,484	527,918
-8,819	14,517	945,931	527,558
-7,804	14,432	945,268	526,897
-6,790	14,407	944,729	526,496
-5,775	14,424	944,188	526,226
-4,760	14,504	943,327	525,978
-3,746	14,422	942,713	525,355
-2,731	14,318	942,093	524,660
-1,717	14,251	941,485	524,090
-0,702	14,267	940,919	523,804
0,313	14,045	940,265	523,529
1,327	17,450	937,686	532,787
2,342	26,500	793,624	474,902
3,356	23,182	458,729	269,404
4,371	-4,256	315,504	156,013
5,386	-8,325	297,187	142,811
6,400	-10,279	291,056	137,906
7,415	-10,515	288,571	136,483
8,429	-10,786	287,128	135,522
9,444	-10,920	286,354	135,014
10,459	-10,937	285,720	134,686
11,473	-10,605	285,010	134,663
12,488	-10,808	284,594	134,257
13,502	-10,848	284,087	133,967
14,517	-10,727	283,603	133,844
15,531	-10,757	283,122	133,576
16,546	-10,638	282,641	133,453
17,561	-10,652	282,203	133,220
18,575	-10,680	281,903	133,039
19,590	-10,779	281,677	132,825
20,604	-10,758	281,419	132,712
21,619	-10,810	281,106	132,503
22,634	-10,679	280,637	132,396
23,648	-10,761	280,425	132,206
24,663	-10,839	280,146	131,988
25,677	-10,597	279,814	132,051
26,692	-10,832	279,662	131,742
27,707	-10,925	279,458	131,546
28,721	-10,687	279,030	131,559
29,736	-10,784	278,694	131,297
30,750	-10,733	278,423	131,206
31,765	-10,820	278,235	131,023
32,780	-10,785	278,028	130,947
33,794	-10,885	277,799	130,733
34,809	-10,918	277,569	130,582
35,823	-10,848	277,199	130,463
36,838	-10,800	276,931	130,370
37,853	-10,862	276,691	130,187
38,867	-10,725	276,515	130,221
39,882	-10,749	276,288	130,081
40,896	-10,814	275,932	129,840
41,911	-10,555	275,684	129,956
42,926	-10,724	275,607	129,749
43,940	-10,860	275,212	129,424
44,955	-10,860	275,008	129,316
45,969	-10,778	274,707	129,240
46,984	-10,850	274,502	129,064
47,999	-11,138	274,240	128,660
49,013	-11,173	274,019	128,513
50,028	-11,195	273,742	128,350
51,042	-11,335	273,428	128,062
52,057	-11,401	273,234	127,897
53,071	-11,481	273,194	127,793
54,086	-11,460	273,031	127,725
55,101	-11,251	272,650	127,729
56,115	-10,986	272,502	127,895
57,130	-10,627	272,323	128,133
58,144	-10,876	272,118	127,794
59,159	-10,691	271,958	127,879
60,174	-10,704	271,719	127,743
61,188	-10,631	271,575	127,732
62,203	-10,604	271,387	127,656
63,217	-10,716	271,246	127,476
64,232	-10,699	270,812	127,276
65,247	-10,689	270,700	127,221
66,261	-10,730	270,269	126,969
67,276	-10,687	270,140	126,937
68,290	-11,053	269,985	126,516
69,305	-10,981	269,541	126,363
70,320	-10,975	269,378	126,281
71,334	-10,739	269,326	126,461
72,349	-10,682	269,138	126,415
73,363	-10,502	268,822	126,419
74,378	-10,780	268,489	125,997
75,393	-10,597	268,414	126,118
76,407	-10,498	268,153	126,075
77,422	-10,684	267,953	125,800
78,436	-10,700	267,850	125,725
79,451	-10,581	267,521	125,668
80,466	-10,592	267,427	125,603
81,480	-10,724	267,010	125,276
82,495	-10,712	266,780	125,168
83,509	-10,713	266,606	125,074
84,524	-10,762	266,297	124,873
85,539	-11,035	266,183	124,562
86,553	-11,004	265,949	124,470
87,568	-10,802	265,788	124,565
88,582	-10,786	265,492	124,430
89,597	-10,857	265,369	124,297
90,611	-10,800	265,296	124,304
91,626	-10,602	265,125	124,390
92,641	-10,672	264,935	124,227
93,655	-10,545	264,672	124,207
94,670	-10,715	264,364	123,898
95,684	-10,796	264,189	123,733
96,699	-10,747	264,015	123,684
97,714	-10,783	263,770	123,526
98,728	-10,887	263,506	123,298
99,743	-10,953	263,334	123,148
100,757	-10,972	263,218	123,066
101,772	-10,841	263,004	123,072
102,787	-10,820	262,648	122,913
103,801	-10,842	262,734	122,922
104,816	-10,642	262,433	122,949
105,830	-10,709	262,255	122,795
106,845	-10,855	262,146	122,603
107,860	-10,777	261,887	122,540
108,874	-10,747	261,625	122,433
109,889	-10,799	261,414	122,278
110,903	-10,864	261,226	122,121
111,918	-10,654	260,898	122,143
112,933	-10,804	260,846	121,975
113,947	-10,701	260,589	121,935
114,962	-10,694	260,550	121,912
115,976	-10,781	260,248	121,683
116,991	-10,766	260,211	121,668
118,006	-10,719	259,874	121,542
119,020	-10,590	259,789	121,604
120,035	-10,841	259,682	121,322
121,049	-10,487	259,286	121,438
122,064	-10,716	259,176	121,174
123,079	-10,548	258,970	121,214
124,093	-10,803	258,733	120,869
125,108	-10,824	258,581	120,769
126,122	-11,126	258,441	120,428
127,137	-11,217	258,127	120,192
128,151	-10,968	257,953	120,317
129,166	-11,131	257,883	120,132
130,181	-10,837	257,609	120,250
131,195	-11,026	257,417	119,984
132,210	-10,690	257,189	120,160
133,224	-10,882	257,155	119,967
134,239	-10,402	256,801	120,208
135,254	-10,689	256,596	119,853
136,268	-10,774	256,511	119,728
137,283	-11,001	256,205	119,377
138,297	-11,122	256,004	119,169
139,312	-11,164	255,756	119,007
140,327	-11,098	255,731	119,041
141,341	-10,334	255,476	119,572
142,356	-10,629	255,392	119,268
143,370	-10,512	255,323	119,325
144,385	-10,405	255,100	119,303
145,400	-10,518	254,824	119,065
146,414	-10,497	254,745	119,036
147,429	-10,590	254,562	118,860
148,443	-10,618	254,443	118,770
149,458	-10,440	254,114	118,759
150,473	-10,494	253,943	118,622
151,487	-10,792	253,959	118,363
152,502	-10,514	253,638	118,441
153,516	-10,661	253,337	118,164
154,531	-10,525	253,236	118,223
155,546	-10,555	253,093	118,120
156,560	-10,588	252,897	117,989
157,575	-10,468	252,634	117,958
158,589	-10,622	252,420	117,717
159,604	-10,698	252,321	117,596
160,619	-10,605	252,110	117,566
161,633	-10,456	251,864	117,567
162,648	-10,462	251,787	117,516
163,662	-10,598	251,760	117,377
164,677	-10,500	251,428	117,295
165,692	-10,522	251,241	117,179
166,706	-10,598	251,191	117,080
167,721	-10,668	251,085	116,961
168,735	-10,642	250,857	116,867
169,750	-10,425	250,625	116,932
170,764	-10,461	250,476	116,822
171,779	-10,571	250,441	116,701
172,794	-10,246	250,029	116,773
173,808	-10,492	250,071	116,575
174,823	-10,856	249,665	116,069
175,837	-11,064	249,451	115,785
176,852	-10,640	249,349	116,083
177,867	-10,458	249,235	116,173
178,881	-10,405	249,084	116,137
179,896	-10,347	248,759	116,023
180,910	-10,394	248,709	115,950
181,925	-10,453	248,561	115,821
182,940	-10,589	248,448	115,645
183,954	-10,542	248,112	115,517
184,969	-10,505	247,987	115,480
185,983	-10,276	247,923	115,630
186,998	-10,551	247,758	115,314
188,013	-10,494	247,583	115,270
189,027	-10,270	247,302	115,315
190,042	-10,510	247,169	115,043
191,056	-10,496	247,065	114,996
192,071	-10,731	246,937	114,731
193,086	-10,634	246,702	114,692
194,100	-10,506	246,493	114,691
195,115	-10,495	246,281	114,591
196,129	-10,472	246,148	114,537
197,144	-10,312	245,857	114,525
198,159	-10,489	245,754	114,320
199,173	-10,477	245,519	114,211
200,188	-10,471	245,451	114,174
201,202	-10,637	245,099	113,863
202,217	-10,925	244,894	113,520
203,232	-10,966	244,564	113,323
204,246	-10,708	244,663	113,572
205,261	-10,448	244,567	113,730
206,275	-11,303	244,191	112,843
207,290	-6,522	246,035	117,638
208,304	1,191	248,408	125,181
209,319	3,998	249,178	127,894
210,334	4,201	249,267	128,097
211,348	4,586	249,024	128,280
212,363	4,864	248,966	128,470
213,377	4,983	248,936	128,541
214,392	4,789	248,690	128,242
215,407	4,604	248,635	128,049
216,421	4,700	248,303	127,946
217,436	5,109	248,219	128,230
218,450	5,101	248,007	128,101
219,465	4,774	247,768	127,697
220,480	4,746	247,415	127,481
221,494	4,504	247,422	127,274
222,509	4,336	247,387	127,106
223,523	4,272	247,129	126,910
224,538	4,167	246,828	126,657
225,553	4,426	246,676	126,781
226,567	4,604	246,519	126,835
227,582	4,464	246,376	126,635
228,596	4,363	246,216	126,459
229,611	4,220	245,953	126,195
230,626	4,203	245,764	126,073
231,640	4,274	245,635	126,054
232,655	4,283	245,509	125,986
233,669	4,197	245,311	125,802
234,684	4,034	245,141	125,570
235,699	4,518	245,199	125,984
236,713	4,755	244,995	126,061
237,728	4,152	244,733	125,425
238,742	4,108	244,613	125,315
239,757	4,002	244,393	125,105
240,772	3,983	244,172	124,966
241,786	4,332	244,037	125,169
242,801	3,987	244,046	124,883
243,815	4,092	243,721	124,790
244,830	4,314	243,778	124,988
245,844	4,427	243,538	124,946
246,859	4,166	243,276	124,589
247,874	4,270	243,060	124,552
248,888	4,125	243,022	124,403
249,903	4,227	242,940	124,433
250,917	4,463	242,665	124,471
251,932	4,512	242,578	124,455
252,947	4,412	242,454	124,299
253,961	4,324	242,149	124,061
254,976	4,377	242,054	124,044
255,990	4,463	242,061	124,106
257,005	4,229	241,647	123,695
258,020	4,056	241,555	123,498
259,034	4,317	241,436	123,635
260,049	4,368	241,291	123,590
261,063	3,996	241,062	123,165
262,078	4,037	241,064	123,188
263,093	4,357	240,945	123,372
264,107	4,318	240,798	123,254
265,122	4,039	240,611	122,925
266,136	4,155	240,543	122,972
267,151	4,589	240,317	123,191
268,166	4,325	240,041	122,828
269,180	4,032	239,959	122,543
270,195	4,733	239,900	123,059
271,209	4,931	239,770	123,139
272,224	4,541	239,477	122,667
273,239	3,885	239,248	122,019
274,253	3,919	239,098	121,959
275,268	4,225	238,981	122,130
276,282	4,594	238,774	122,306
277,297	4,019	238,621	121,762
278,312	3,992	238,562	121,699
279,326	4,244	238,377	121,793
280,341	4,264	238,229	121,723
281,355	4,115	238,018	121,487
282,370	4,610	237,785	121,747
283,384	4,276	237,710	121,435
284,399	4,085	237,520	121,176
285,414	3,971	237,330	120,979
286,428	4,357	237,304	121,259
287,443	4,182	237,210	121,062
288,457	4,478	237,068	121,211
289,472	4,494	236,867	121,110
290,487	4,124	236,741	120,745
291,501	4,061	236,592	120,609
292,516	4,059	236,179	120,386
293,530	3,894	236,116	120,214
294,545	4,251	236,121	120,485
295,560	4,458	235,971	120,559
296,574	3,883	235,747	119,985
297,589	4,291	235,606	120,221
298,603	4,515	235,698	120,432
299,618	4,557	235,456	120,330
300,633	4,300	235,347	120,064
301,647	4,595	235,230	120,223
302,662	4,729	235,086	120,243
303,676	4,520	234,936	119,993
304,691	4,578	234,649	119,881
305,706	4,721	234,576	119,944
306,720	4,803	234,367	119,890
307,735	4,705	234,262	119,749
308,749	4,275	234,151	119,349
309,764	4,253	233,703	119,093
310,779	4,035	233,657	118,891
311,793	3,818	233,456	118,610
312,808	3,767	233,298	118,480
313,822	3,724	233,046	118,309
314,837	3,784	232,907	118,274
315,852	4,022	233,150	118,570
316,866	4,526	232,898	118,819
317,881	4,567	232,742	118,760
318,895	4,356	232,617	118,523
319,910	4,424	232,438	118,474
320,925	4,333	232,101	118,222
321,939	4,006	232,223	118,023
322,954	4,727	232,125	118,515
323,968	4,520	231,882	118,222
324,983	4,528	231,647	118,098
325,997	4,346	231,765	118,008
327,012	4,728	231,386	118,096
328,027	4,414	231,125	117,713
329,041	4,520	231,206	117,824
330,056	4,941	231,281	118,173
331,070	5,257	231,000	118,260
332,085	4,691	230,659	117,645
333,100	4,344	230,459	117,268
334,114	4,407	230,369	117,260
335,129	4,726	230,343	117,479
336,143	4,818	230,206	117,468
337,158	4,660	229,948	117,206
338,173	4,288	229,940	116,909
339,187	4,293	229,568	116,714
340,202	4,365	229,505	116,725
341,216	4,175	229,430	116,533
342,231	4,392	229,123	116,531
343,246	4,373	229,050	116,469
344,260	4,227	229,123	116,386
345,275	4,498	228,989	116,512
346,289	4,477	228,858	116,419
347,304	4,685	228,553	116,410
348,319	4,885	228,480	116,513
349,333	4,370	228,223	115,984
350,348	4,188	228,134	115,792
351,362	4,299	227,864	115,728
352,377	3,983	227,646	115,370
353,392	3,970	227,452	115,252
354,406	4,214	227,376	115,386
355,421	195,018	1321,978	1396,849
356,435	156,340	1455,310	1396,817
