DTS Sentinel unit serial number:	SN410029Multiplexer serial number:	ORYXHardware model number:	OX2-SRSoftware version number:	ORYX F/W v4,00 Oryx Data Collector v3.7.2.0data status	okinstallation	B5 Nyhavnadifferential loss correction	single-endedforward channel	channel 2reverse channel	N/Adate	2023/12/13time	17:47:13forward acquisition time	300,00reverse acquisition time	0,00gamma	499,1914k internal	0,3159k external	0,3159temperature offset calibration	1,0000default loss term (dB/km)	0,3820temperature slope calibration	1,0000multiplexer offset coefficient	1,0000multiplexer slope coefficient	1,0000fibre end	0,00T internal ref (°C)	13,46T ext. ref 1 (°C)	-3,88T ext. ref 2 (°C)	-3,96length (m)	temperature (°C)	Stokes	anti-Stokes-744,400	800,000	0,044	-0,110
-743,385	-157,319	-0,315	0,014
-742,371	31,701	0,159	0,101
-741,356	-93,828	-0,229	0,046
-740,342	140,445	0,108	0,105
-739,327	-86,280	-0,217	0,049
-738,312	-124,942	0,034	0,004
-737,298	32,420	-0,227	-0,144
-736,283	422,214	-0,026	0,041
-735,269	-17,780	-0,231	0,106
-734,254	-86,630	0,076	0,017
-733,239	-42,148	-0,480	-0,180
-732,225	800,000	-0,034	0,072
-731,210	800,000	-0,034	0,109
-730,196	-200,000	-0,104	0,000
-729,181	-52,113	-0,065	-0,022
-728,167	-133,737	0,122	0,011
-727,152	-200,000	-0,008	-0,161
-726,137	143,874	-0,070	-0,068
-725,123	96,895	-0,117	-0,098
-724,108	800,000	-0,077	-0,180
-723,094	221,856	-0,048	-0,057
-722,079	800,000	-0,049	-0,132
-721,064	-200,000	-0,020	-0,119
-720,050	-1,628	-0,107	-0,055
-719,035	103,130	0,016	-0,014
-718,021	289,523	-0,068	-0,091
-717,006	-57,556	-0,113	-0,036
-715,991	23,510	-0,166	-0,100
-714,977	753,669	-0,048	-0,096
-713,962	361,006	-0,074	-0,110
-712,948	-39,990	0,125	-0,048
-711,933	-200,000	0,035	0,116
-710,918	427,663	-0,050	-0,080
-709,904	5,669	-0,095	-0,052
-708,889	800,000	-0,041	-0,091
-707,875	800,000	-0,026	-0,071
-706,860	306,216	-0,051	-0,071
-705,845	-200,000	0,016	0,122
-704,831	354,725	0,041	-0,061
-703,816	800,000	-0,020	-0,056
-702,802	-88,921	0,016	-0,003
-701,787	154,475	-0,065	-0,066
-700,772	236,320	-0,052	0,063
-699,758	-78,315	0,038	-0,009
-698,743	-54,598	0,120	0,040
-697,729	-200,000	0,005	-0,140
-696,714	39,008	0,102	0,067
-695,699	800,000	0,020	-0,050
-694,685	-178,263	-0,133	0,002
-693,670	-200,000	-0,001	-0,113
-692,656	56,773	-0,072	-0,051
-691,641	145,344	0,066	-0,065
-690,627	457,866	-0,029	0,047
-689,612	800,000	0,034	0,102
-688,597	800,000	0,045	0,100
-687,583	-98,129	-0,086	-0,016
-686,568	-75,467	0,073	-0,019
-685,554	26,375	-0,149	-0,091
-684,539	1,659	0,078	0,041
-683,524	181,737	0,050	0,054
-682,510	176,923	-0,078	-0,084
-681,495	-200,000	-0,036	-0,224
-680,481	-200,000	0,027	0,185
-679,466	581,200	-0,037	-0,068
-678,451	-89,715	-0,054	0,012
-677,437	800,000	0,057	-0,165
-676,422	10,567	0,089	0,050
-675,408	-27,649	0,037	-0,016
-674,393	-70,016	0,254	0,071
-673,378	-13,393	-0,041	-0,019
-672,364	7,068	-0,057	-0,031
-671,349	240,470	0,049	0,060
-670,335	707,170	0,036	0,070
-669,320	103,798	-0,093	0,080
-668,305	190,409	0,045	0,049
-667,291	120,657	0,025	0,022
-666,276	-200,000	0,022	-0,144
-665,262	125,449	-0,053	0,050
-664,247	52,195	-0,062	-0,043
-663,232	55,615	0,128	-0,091
-662,218	-3,496	-0,078	0,040
-661,203	-87,614	-0,118	0,026
-660,189	35,779	0,133	-0,086
-659,174	-5,119	-0,040	0,020
-658,159	221,795	-0,123	-0,145
-657,145	-167,726	-0,062	-0,002
-656,130	128,634	0,116	0,109
-655,116	-139,582	-0,061	0,005
-654,101	-200,000	-0,006	-0,051
-653,086	-200,000	-0,004	0,016
-652,072	-53,984	-0,083	-0,027
-651,057	30,740	-0,054	-0,034
-650,043	679,102	0,039	-0,075
-649,028	97,456	0,061	-0,051
-648,014	721,598	-0,052	0,102
-646,999	258,397	0,009	0,011
-645,984	-200,000	-0,005	0,264
-644,970	12,593	-0,083	-0,047
-643,955	408,406	-0,042	-0,065
-642,941	341,123	-0,070	-0,101
-641,926	335,597	-0,036	-0,052
-640,911	54,854	0,089	-0,063
-639,897	-200,000	0,008	-0,045
-638,882	148,967	0,050	-0,049
-637,868	119,190	-0,056	0,051
-636,853	122,614	-0,029	0,027
-635,838	78,159	-0,114	-0,089
-634,824	-101,917	-0,063	-0,011
-633,809	684,260	-0,047	0,090
-632,795	184,144	-0,055	-0,060
-631,780	800,000	-0,017	-0,050
-630,765	520,756	-0,058	0,100
-629,751	-200,000	-0,013	-0,130
-628,736	271,245	0,074	-0,096
-627,722	800,000	-0,067	-0,191
-626,707	271,306	0,035	0,046
-625,692	-15,177	0,122	0,057
-624,678	48,428	-0,147	-0,101
-623,663	175,659	0,046	0,049
-622,649	267,310	-0,046	0,059
-621,634	-36,629	0,131	0,051
-620,619	458,587	-0,094	-0,154
-619,605	125,804	0,062	-0,057
-618,590	153,289	0,070	-0,070
-617,576	-200,000	0,023	-0,083
-616,561	151,006	0,098	0,098
-615,546	562,067	-0,047	0,083
-614,532	6,544	-0,167	0,091
-613,517	-128,604	-0,074	0,008
-612,503	800,000	-0,006	0,016
-611,488	-26,876	0,028	-0,012
-610,474	-156,247	0,030	0,001
-609,459	24,554	0,053	0,032
-608,444	-200,000	-0,017	0,062
-607,430	800,000	-0,040	-0,099
-606,415	248,601	-0,088	0,109
-605,401	125,404	-0,016	0,015
-604,386	-200,000	-0,009	-0,041
-603,371	-200,000	-0,013	-0,081
-602,357	-200,000	-0,005	-0,050
-601,342	-200,000	0,016	-0,086
-600,328	-16,673	0,125	-0,058
-599,313	800,000	-0,070	-0,182
-598,298	65,046	-0,108	-0,080
-597,284	722,856	0,036	-0,070
-596,269	-200,000	-0,069	-0,000
-595,255	-21,277	0,083	0,037
-594,240	475,612	-0,033	-0,056
-593,225	98,030	-0,049	-0,041
-592,211	320,717	0,037	-0,052
-591,196	195,659	0,058	0,064
-590,182	-200,000	-0,001	0,019
-589,167	-143,037	-0,024	-0,002
-588,152	-200,000	-0,003	0,137
-587,138	-200,000	0,037	0,133
-586,123	145,363	-0,036	-0,036
-585,109	-30,833	-0,086	-0,036
-584,094	800,000	0,008	-0,019
-583,079	85,215	0,124	0,099
-582,065	-74,472	0,140	-0,037
-581,050	678,028	0,049	-0,093
-580,036	74,892	-0,075	-0,058
-579,021	-87,154	-0,106	-0,023
-578,006	8,907	-0,038	0,021
-576,992	-200,000	0,019	-0,085
-575,977	26,120	0,082	-0,050
-574,963	800,000	0,050	0,125
-573,948	-161,743	-0,030	-0,001
-572,934	148,465	-0,087	-0,086
-571,919	284,244	0,089	-0,117
-570,904	-200,000	0,012	0,099
-569,890	-21,934	0,076	0,034
-568,875	-200,000	-0,046	0,161
-567,861	-200,000	0,021	0,070
-566,846	265,780	0,045	-0,058
-565,831	3,048	-0,108	0,057
-564,817	47,725	0,058	0,040
-563,802	58,810	-0,114	-0,082
-562,788	21,664	0,057	0,034
-561,773	-88,057	-0,041	0,009
-560,758	131,165	0,060	0,057
-559,744	-118,886	-0,039	-0,005
-558,729	39,752	0,077	0,050
-557,715	-53,669	0,051	-0,017
-556,700	-46,987	0,107	-0,038
-555,685	514,165	-0,038	0,066
-554,671	-194,533	-0,091	0,001
-553,656	-36,782	0,081	-0,032
-552,642	800,000	-0,033	0,077
-551,627	145,560	0,076	0,074
-550,612	800,000	-0,011	-0,032
-549,598	-200,000	-0,026	-0,185
-548,583	-200,000	0,012	0,080
-547,569	-38,084	0,164	-0,063
-546,554	54,982	0,061	-0,043
-545,539	-200,000	-0,002	0,063
-544,525	-20,469	0,092	0,041
-543,510	-200,000	-0,048	-0,249
-542,496	800,000	0,042	0,117
-541,481	93,549	-0,016	0,013
-540,466	113,106	-0,069	0,061
-539,452	-200,000	0,018	0,113
-538,437	166,551	0,080	0,083
-537,423	-200,000	-0,029	0,130
-536,408	800,000	0,009	0,023
-535,393	-100,228	-0,095	-0,017
-534,379	431,131	-0,035	-0,056
-533,364	800,000	0,068	0,144
-532,350	-107,756	-0,023	-0,004
-531,335	226,692	0,067	-0,080
-530,321	-127,494	0,095	0,010
-529,306	-1,081	-0,063	0,032
-528,291	17,576	0,036	-0,021
-527,277	-172,058	-0,151	-0,003
-526,262	800,000	-0,062	-0,192
-525,248	800,000	0,056	0,118
-524,233	-200,000	-0,003	0,044
-523,218	314,365	0,094	0,130
-522,204	9,360	-0,012	0,007
-521,189	-200,000	0,002	0,060
-520,175	-164,589	-0,160	-0,005
-519,160	580,739	-0,052	-0,093
-518,145	571,050	-0,033	-0,060
-517,131	-128,976	0,081	0,008
-516,116	-200,000	-0,017	0,068
-515,102	78,449	-0,076	0,059
-514,087	-200,000	0,011	-0,041
-513,072	27,478	-0,101	-0,062
-512,058	244,523	-0,086	-0,106
-511,043	-100,746	0,111	-0,020
-510,029	411,797	-0,066	-0,102
-509,014	-14,830	-0,120	0,056
-507,999	370,265	-0,027	0,041
-506,985	-200,000	0,008	-0,038
-505,970	-200,000	-0,000	-0,076
-504,956	357,013	-0,063	0,092
-503,941	383,155	-0,063	0,095
-502,926	800,000	0,012	0,029
-501,912	557,377	-0,050	0,089
-500,897	587,509	-0,048	0,086
-499,883	-17,671	-0,108	0,049
-498,868	609,545	-0,040	-0,072
-497,853	343,362	0,021	-0,031
-496,839	-126,631	-0,120	-0,013
-495,824	-21,858	0,167	-0,074
-494,810	667,406	-0,071	0,134
-493,795	-143,302	0,078	0,005
-492,781	301,968	0,106	-0,143
-491,766	-110,036	-0,074	0,011
-490,751	-200,000	0,015	-0,088
-489,737	82,662	0,126	0,099
-488,722	-200,000	-0,013	0,049
-487,708	34,249	0,107	-0,068
-486,693	800,000	-0,041	0,099
-485,678	-32,915	-0,037	-0,015
-484,664	-200,000	-0,045	-0,164
-483,649	52,349	0,084	-0,059
-482,635	4,835	-0,095	-0,051
-481,620	-103,630	0,092	-0,016
-480,605	203,512	0,077	-0,087
-479,591	586,518	-0,043	0,078
-478,576	255,092	0,056	0,070
-477,562	-88,943	0,058	-0,012
-476,547	-73,960	0,112	-0,029
-475,532	-61,672	0,239	0,073
-474,518	-72,456	0,097	-0,026
-473,503	800,000	0,018	0,051
-472,489	-128,648	-0,088	0,009
-471,474	392,579	0,051	-0,077
-470,459	-136,069	-0,077	-0,007
-469,445	-70,136	0,117	0,032
-468,430	250,398	-0,061	-0,076
-467,416	319,379	-0,032	0,044
-466,401	503,910	0,101	0,171
-465,386	-200,000	-0,042	0,219
-464,372	590,512	0,019	-0,034
-463,357	123,405	-0,077	-0,071
-462,343	172,169	-0,100	-0,105
-461,328	-37,799	-0,172	-0,067
-460,313	-47,114	-0,047	0,017
-459,299	-81,683	-0,044	0,011
-458,284	-78,100	0,198	0,049
-457,270	-156,021	-0,087	0,004
-456,255	-120,285	0,125	0,015
-455,241	44,631	0,055	-0,037
-454,226	-200,000	-0,012	0,095
-453,211	-32,323	0,088	-0,036
-452,197	-200,000	-0,011	0,071
-451,182	-0,299	0,044	0,023
-450,168	-104,587	-0,070	-0,012
-449,153	-200,000	-0,005	-0,045
-448,138	520,407	-0,062	-0,106
-447,124	-42,670	0,039	0,014
-446,109	-200,000	0,020	0,129
-445,095	-90,307	0,050	0,010
-444,080	-200,000	-0,004	0,096
-443,065	346,304	0,028	-0,041
-442,051	-200,000	0,001	0,028
-441,036	-200,000	0,028	0,092
-440,022	216,007	-0,112	-0,130
-439,007	34,344	-0,050	-0,032
-437,992	-200,000	-0,003	0,013
-436,978	-21,233	0,117	-0,052
-435,963	116,534	0,103	0,092
-434,949	-66,866	-0,106	0,030
-433,934	-200,000	0,001	0,005
-432,919	387,574	-0,032	0,048
-431,905	-200,000	-0,017	-0,068
-430,890	-200,000	0,003	-0,101
-429,876	201,469	0,092	0,103
-428,861	27,003	-0,042	0,026
-427,846	800,000	-0,048	0,127
-426,832	261,002	0,028	-0,036
-425,817	800,000	-0,010	-0,030
-424,803	-200,000	-0,036	0,120
-423,788	295,367	-0,009	0,012
-422,773	800,000	0,040	-0,084
-421,759	318,937	-0,093	0,129
-420,744	75,893	0,185	0,142
-419,730	347,435	-0,075	-0,108
-418,715	-138,238	-0,115	-0,009
-417,701	-200,000	0,039	0,164
-416,686	-200,000	0,021	0,109
-415,671	-200,000	0,000	-0,017
-414,657	-111,560	0,063	0,009
-413,642	-20,935	0,052	0,023
-412,628	800,000	-0,030	0,067
-411,613	800,000	-0,036	-0,101
-410,598	-13,666	-0,076	-0,036
-409,584	367,567	0,079	-0,117
-408,569	69,925	-0,038	0,029
-407,555	-200,000	0,010	-0,054
-406,540	-200,000	0,000	0,141
-405,525	380,000	0,055	-0,082
-404,511	29,597	-0,124	-0,076
-403,496	-200,000	0,011	-0,064
-402,482	-99,951	0,174	-0,031
-401,467	-200,000	-0,032	0,196
-400,452	296,508	-0,072	0,096
-399,438	-96,369	0,027	-0,005
-398,423	-97,111	0,043	-0,008
-397,409	-200,000	0,017	0,058
-396,394	797,119	-0,021	-0,042
-395,379	800,000	-0,010	-0,030
-394,365	-200,000	0,005	0,050
-393,350	800,000	0,047	0,102
-392,336	511,609	0,079	0,134
-391,321	18,287	-0,075	0,043
-390,306	-51,719	-0,041	-0,014
-389,292	-51,546	-0,119	0,040
-388,277	28,723	0,087	-0,053
-387,263	-51,236	0,104	0,035
-386,248	800,000	-0,037	0,101
-385,233	101,243	0,108	0,091
-384,219	-10,109	0,068	0,032
-383,204	-200,000	0,036	-0,182
-382,190	-200,000	-0,004	-0,066
-381,175	-160,495	-0,173	-0,007
-380,160	-109,974	-0,071	0,011
-379,146	-40,510	0,061	0,023
-378,131	457,147	0,079	0,127
-377,117	100,880	-0,009	-0,008
-376,102	274,137	-0,090	-0,116
-375,088	-200,000	-0,013	-0,058
-374,073	106,002	-0,052	-0,045
-373,058	71,278	-0,069	-0,052
-372,044	297,227	0,026	0,034
-371,029	472,791	-0,042	-0,069
-370,015	107,225	0,042	-0,036
-369,000	800,000	0,039	0,080
-367,985	-200,000	0,006	-0,023
-366,971	13,981	0,066	-0,037
-365,956	-60,683	0,083	-0,026
-364,942	800,000	0,022	0,047
-363,927	461,788	-0,051	-0,083
-362,912	-200,000	-0,005	0,025
-361,898	72,596	-0,098	0,074
-360,883	-101,019	-0,093	0,016
-359,869	800,000	-0,028	-0,082
-358,854	44,388	-0,076	-0,050
-357,839	151,546	0,170	0,168
-356,825	-200,000	0,028	0,117
-355,810	800,000	-0,032	0,092
-354,796	432,731	-0,056	-0,089
-353,781	-200,000	0,023	-0,142
-352,766	-114,693	-0,126	-0,017
-351,752	116,399	-0,028	0,025
-350,737	92,627	0,064	-0,052
-349,723	439,063	-0,028	-0,045
-348,708	-4,080	0,044	0,022
-347,693	133,430	-0,147	-0,138
-346,679	-64,339	0,074	0,022
-345,664	-200,000	-0,028	-0,091
-344,650	-200,000	0,022	0,077
-343,635	291,284	0,044	0,058
-342,620	-185,449	0,017	0,000
-341,606	-76,706	-0,081	0,020
-340,591	-59,180	0,069	-0,022
-339,577	361,050	-0,087	-0,127
-338,562	206,070	0,036	0,041
-337,548	281,870	-0,049	0,064
-336,533	-177,229	0,072	0,001
-335,518	-87,900	-0,038	-0,008
-334,504	-200,000	0,005	0,088
-333,489	-200,000	-0,017	-0,155
-332,475	566,610	0,030	0,053
-331,460	-77,512	-0,141	0,035
-330,445	-200,000	0,006	0,020
-329,431	117,493	0,025	-0,022
-328,416	-123,738	0,047	0,005
-327,402	245,969	0,045	0,055
-326,387	-200,000	0,023	0,083
-325,372	-200,000	-0,002	0,052
-324,358	-3,718	0,054	0,027
-323,343	-200,000	-0,004	0,056
-322,329	-200,000	-0,022	0,125
-321,314	-1,634	0,102	0,052
-320,299	-200,000	0,025	0,183
-319,285	-139,607	-0,071	-0,005
-318,270	-80,497	-0,054	-0,013
-317,256	-13,522	-0,041	-0,019
-316,241	800,000	-0,029	0,081
-315,226	-200,000	-0,010	0,082
-314,212	-200,000	0,003	0,041
-313,197	150,915	0,069	-0,068
-312,183	677,660	-0,038	0,072
-311,168	296,786	0,032	0,042
-310,153	800,000	-0,029	-0,064
-309,139	800,000	-0,039	-0,104
-308,124	-33,693	0,192	-0,076
-307,110	493,058	0,010	0,016
-306,095	70,170	0,135	-0,101
-305,080	-200,000	-0,010	-0,034
-304,066	800,000	0,055	0,113
-303,051	-58,896	-0,110	0,034
-302,037	800,000	0,003	-0,008
-301,022	-200,000	-0,002	-0,064
-300,008	-11,189	0,186	-0,089
-298,993	-105,608	-0,097	0,016
-297,978	-133,096	-0,091	-0,008
-296,964	-70,552	-0,110	-0,030
-295,949	-35,192	0,121	-0,047
-294,935	-200,000	0,014	-0,096
-293,920	31,133	0,078	0,049
-292,905	-156,572	-0,076	-0,003
-291,891	55,773	0,094	0,066
-290,876	179,824	0,025	0,027
-289,862	-106,235	-0,076	0,012
-288,847	765,407	0,066	-0,131
-287,832	64,594	-0,044	-0,032
-286,818	-7,947	0,076	0,037
-285,803	-17,044	-0,113	-0,052
-284,789	-200,000	0,023	-0,088
-283,774	60,654	0,049	0,035
-282,759	20,400	-0,053	-0,031
-281,745	190,393	0,027	0,030
-280,730	5,545	-0,152	-0,081
-279,716	-71,467	-0,175	-0,047
-278,701	87,589	0,091	0,073
-277,686	800,000	-0,043	0,136
-276,672	9,436	-0,053	-0,029
-275,657	-138,999	-0,105	-0,008
-274,643	44,474	0,019	-0,013
-273,628	800,000	-0,072	-0,168
-272,613	727,307	0,023	0,044
-271,599	624,659	-0,060	0,109
-270,584	108,100	0,043	0,037
-269,570	800,000	-0,006	-0,017
-268,555	231,966	0,062	0,074
-267,540	800,000	-0,033	0,086
-266,526	452,258	-0,097	-0,155
-265,511	800,000	-0,031	-0,090
-264,497	-200,000	-0,004	-0,020
-263,482	-61,229	0,081	0,024
-262,467	-200,000	-0,003	-0,036
-261,453	-200,000	-0,012	0,044
-260,438	374,284	-0,059	0,087
-259,424	-111,585	-0,140	-0,020
-258,409	-200,000	-0,018	-0,152
-257,395	-25,029	-0,077	-0,033
-256,380	-105,008	0,186	-0,030
-255,365	250,252	0,044	0,054
-254,351	435,180	0,009	-0,014
-253,336	41,532	0,095	-0,062
-252,322	-100,897	-0,040	-0,007
-251,307	-69,856	0,106	-0,029
-250,292	800,000	0,032	0,083
-249,278	-110,343	0,112	-0,017
-248,263	-200,000	-0,014	0,116
-247,249	-57,234	0,148	-0,047
-246,234	800,000	-0,025	0,068
-245,219	98,265	0,073	-0,061
-244,205	-89,970	-0,047	0,010
-243,190	-200,000	-0,005	-0,080
-242,176	235,260	-0,017	-0,020
-241,161	-128,953	0,053	0,005
-240,146	-28,411	0,045	0,019
-239,132	-64,899	-0,066	0,019
-238,117	349,654	0,037	-0,053
-237,103	-84,948	-0,107	-0,024
-236,088	73,845	0,231	0,175
-235,073	88,051	-0,132	0,106
-234,059	8,873	0,019	0,010
-233,044	800,000	0,016	0,041
-232,030	-110,462	-0,038	0,006
-231,015	137,763	-0,075	-0,071
-230,000	227,702	-0,086	0,101
-228,986	-154,326	0,135	0,006
-227,971	-200,000	0,024	0,098
-226,957	7,826	0,065	0,035
-225,942	303,686	0,115	0,154
-224,927	800,000	-0,036	0,083
-223,913	37,869	0,055	-0,035
-222,898	-11,701	0,045	0,021
-221,884	-200,000	0,007	-0,202
-220,869	-200,000	0,022	-0,100
-219,855	-116,546	0,047	-0,006
-218,840	-180,001	-0,045	-0,001
-217,825	800,000	0,032	0,087
-216,811	-106,877	-0,097	-0,015
-215,796	-200,000	-0,045	-0,163
-214,782	-95,031	0,172	0,033
-213,767	25,770	-0,074	0,044
-212,752	357,659	0,044	-0,064
-211,738	-14,180	-0,029	0,013
-210,723	99,681	-0,034	0,028
-209,709	-88,636	0,137	0,029
-208,694	-200,000	-0,003	-0,037
-207,679	-200,000	-0,004	-0,124
-206,665	12,535	0,080	-0,045
-205,650	800,000	0,051	-0,134
-204,636	-56,188	0,111	-0,035
-203,621	131,175	0,069	-0,064
-202,606	101,182	-0,146	-0,123
-201,592	-28,928	0,089	0,037
-200,577	-45,943	-0,032	-0,011
-199,563	737,790	-0,043	-0,084
-198,548	-200,000	0,009	-0,069
-197,533	-119,972	0,101	0,012
-196,519	-86,554	-0,130	0,028
-195,504	-64,034	-0,137	-0,040
-194,490	103,081	0,064	-0,054
-193,475	-38,008	-0,023	-0,009
-192,460	368,807	0,058	-0,086
-191,446	100,212	0,055	0,046
-190,431	-200,000	0,001	-0,106
-189,417	-200,000	0,024	0,125
-188,402	-200,000	-0,018	-0,064
-187,387	0,929	-0,080	0,041
-186,373	75,454	-0,068	-0,052
-185,358	563,531	0,029	0,051
-184,344	22,972	-0,119	-0,070
-183,329	800,000	-0,046	-0,094
-182,315	-6,282	0,111	-0,055
-181,300	-58,851	-0,135	0,042
-180,285	88,546	-0,083	0,066
-179,271	610,359	0,033	0,059
-178,256	-200,000	-0,001	0,046
-177,242	-178,329	-0,113	-0,002
-176,227	6,799	0,196	0,105
-175,212	-1,384	0,116	0,059
-174,198	585,611	-0,052	0,093
-173,183	-57,692	-0,091	0,029
-172,169	-144,328	-0,085	0,006
-171,154	11,015	-0,041	0,023
-170,139	-200,000	-0,012	-0,040
-169,125	-200,000	0,009	-0,041
-168,110	-200,000	0,000	0,098
-167,096	116,992	-0,019	-0,017
-166,081	-91,591	-0,203	-0,041
-165,066	-200,000	-0,029	-0,096
-164,052	-129,006	0,117	0,012
-163,037	-95,953	-0,046	0,009
-162,023	-200,000	0,015	0,130
-161,008	152,049	-0,010	-0,010
-159,993	-96,525	0,080	-0,015
-158,979	-200,000	-0,017	-0,151
-157,964	-200,000	0,022	-0,132
-156,950	-84,879	0,085	0,019
-155,935	-18,551	0,068	-0,030
-154,920	259,174	-0,072	-0,089
-153,906	800,000	0,037	-0,102
-152,891	-99,333	-0,129	0,023
-151,877	-123,246	-0,134	-0,015
-150,862	-200,000	0,020	-0,175
-149,847	-111,350	-0,138	-0,020
-148,833	19,928	-0,035	0,020
-147,818	98,515	0,100	-0,083
-146,804	-57,897	-0,081	0,025
-145,789	-54,252	-0,063	0,020
-144,775	90,870	-0,078	0,063
-143,760	156,587	0,079	0,078
-142,745	136,502	-0,044	-0,041
-141,731	271,569	-0,098	-0,124
-140,716	-88,873	0,078	-0,016
-139,702	800,000	0,031	0,062
-138,687	-10,474	0,138	-0,066
-137,672	40,473	-0,193	-0,125
-136,658	-200,000	-0,018	0,125
-135,643	72,866	-0,086	0,064
-134,629	-200,000	-0,037	-0,185
-133,614	-56,555	0,069	0,022
-132,599	643,506	0,043	-0,079
-131,585	-200,000	-0,006	-0,086
-130,570	-15,830	-0,095	-0,043
-129,556	-107,167	0,064	0,010
-128,541	177,893	-0,055	-0,057
-127,526	9,047	-0,068	0,037
-126,512	-200,000	0,026	0,166
-125,497	337,312	-0,030	0,041
-124,483	-75,845	-0,099	0,025
-123,468	-21,950	-0,043	0,019
-122,453	-140,690	0,045	0,003
-121,439	277,458	-0,089	0,114
-120,424	-200,000	0,029	-0,094
-119,410	405,312	0,086	-0,131
-118,395	361,283	0,052	0,075
-117,380	277,939	0,034	0,043
-116,366	-200,000	0,004	-0,038
-115,351	193,180	-0,048	0,052
-114,337	241,479	-0,108	-0,130
-113,322	800,000	-0,022	-0,067
-112,307	800,000	-0,068	-0,163
-111,293	-157,562	-0,066	0,003
-110,278	331,733	-0,034	-0,047
-109,264	800,000	0,035	-0,108
-108,249	-200,000	-0,033	-0,113
-107,234	-200,000	-0,013	-0,150
-106,220	443,376	-0,046	-0,072
-105,205	-107,226	0,133	-0,021
-104,191	670,408	0,086	0,161
-103,176	-31,482	0,102	0,041
-102,162	-181,631	-0,038	0,001
-101,147	307,197	0,074	-0,100
-100,132	-159,636	-0,120	-0,005
-99,118	-28,445	-0,047	0,019
-98,103	-200,000	-0,014	-0,225
-97,089	800,000	0,054	0,120
-96,074	-139,098	0,067	0,005
-95,059	-122,307	0,104	0,012
-94,045	99,723	-0,122	-0,101
-93,030	800,000	0,050	0,104
-92,016	800,000	-0,043	0,101
-91,001	-64,234	0,126	0,037
-89,986	449,954	-0,032	0,050
-88,972	-62,329	0,038	-0,011
-87,957	22,480	-0,101	-0,059
-86,943	235,354	0,050	0,059
-85,928	-200,000	0,001	-0,121
-84,913	46,010	0,095	0,063
-83,899	-24,124	0,168	0,072
-82,884	19,054	-0,033	-0,019
-81,870	-9,075	0,027	0,013
-80,855	800,000	-0,062	0,155
-79,840	178,539	-0,083	-0,087
-78,826	426,817	-0,084	-0,130
-77,811	-200,000	-0,018	-0,058
-76,797	26,078	-0,044	-0,026
-75,782	-200,000	0,036	0,167
-74,767	-62,265	0,062	-0,018
-73,753	-178,958	0,073	0,001
-72,738	800,000	-0,067	0,164
-71,724	71,563	-0,115	0,086
-70,709	-2,210	-0,148	-0,074
-69,694	800,000	-0,019	0,060
-68,680	219,921	0,037	0,042
-67,665	800,000	0,019	0,056
-66,651	228,941	-0,040	-0,047
-65,636	106,765	0,075	-0,064
-64,622	800,000	0,021	0,046
-63,607	-200,000	0,007	-0,048
-62,592	800,000	0,034	-0,097
-61,578	-93,475	0,116	0,023
-60,563	800,000	-0,030	0,066
-59,549	461,503	-0,068	-0,109
-58,534	31,832	-2,090	-1,288
-57,519	-200,000	-0,009	-0,884
-56,505	-200,000	-1,414	-5,214
-55,490	145,636	0,830	0,799
-54,476	800,000	5,308	12,058
-53,461	-200,000	18,729	322,079
-52,446	800,000	742,911	2339,522
-51,432	556,396	1658,293	2877,568
-50,417	110,911	1641,848	1417,551
-49,403	75,195	1291,495	975,901
-48,388	29,970	1032,456	629,958
-47,373	19,934	995,170	573,892
-46,359	17,227	982,948	557,892
-45,344	13,835	979,010	544,459
-44,330	14,234	977,340	544,821
-43,315	13,492	975,704	541,448
-42,300	13,520	974,527	540,865
-41,286	13,518	973,484	540,258
-40,271	13,485	972,615	539,648
-39,257	13,485	971,747	539,145
-38,242	13,471	971,001	538,664
-37,227	13,514	969,983	538,216
-36,213	13,448	969,119	537,500
-35,198	13,436	968,225	536,946
-34,184	13,488	967,396	536,633
-33,169	13,421	966,517	535,907
-32,154	13,503	965,427	535,547
-31,140	13,463	964,623	534,949
-30,125	13,579	963,733	534,811
-29,111	13,518	962,965	534,167
-28,096	13,471	962,528	533,751
-27,082	13,487	961,769	533,361
-26,067	13,539	960,986	533,073
-25,052	13,471	960,100	532,342
-24,038	13,506	959,346	532,015
-23,023	13,514	958,795	531,713
-22,009	13,520	958,157	531,357
-20,994	13,478	957,592	530,890
-19,979	13,540	957,002	530,741
-18,965	13,475	956,334	530,138
-17,950	13,508	955,667	529,854
-16,936	13,440	955,124	529,314
-15,921	13,426	954,584	528,948
-14,906	13,446	953,664	528,480
-13,892	13,388	953,256	528,047
-12,877	13,374	952,404	527,509
-11,863	13,387	951,740	527,162
-10,848	13,318	951,388	526,727
-9,833	13,450	950,603	526,692
-8,819	13,419	950,048	526,266
-7,804	13,364	949,386	525,703
-6,790	13,379	949,023	525,530
-5,775	13,435	948,216	525,240
-4,760	13,398	947,722	524,827
-3,746	13,349	947,241	524,384
-2,731	13,249	946,235	523,486
-1,717	13,220	945,700	523,077
-0,702	13,200	945,081	522,652
0,313	12,989	944,388	522,386
1,327	16,440	941,752	531,825
2,342	25,372	795,383	472,898
3,356	21,160	459,353	266,628
4,371	-6,554	316,876	154,182
5,386	-10,639	298,709	141,156
6,400	-12,817	292,528	136,042
7,415	-12,867	290,318	134,952
8,429	-12,967	288,639	134,060
9,444	-13,030	287,859	133,625
10,459	-12,703	287,213	133,634
11,473	-12,626	286,591	133,409
12,488	-13,069	286,124	132,745
13,502	-12,997	285,651	132,585
14,517	-12,782	285,194	132,570
15,531	-12,470	284,863	132,708
16,546	-12,185	284,545	132,826
17,561	-12,329	284,054	132,445
18,575	-12,324	283,845	132,341
19,590	-12,241	283,548	132,272
20,604	-12,324	283,303	132,064
21,619	-12,400	282,934	131,807
22,634	-12,270	282,538	131,737
23,648	-12,120	282,125	131,678
24,663	-12,271	281,804	131,370
25,677	-12,296	281,670	131,272
26,692	-12,219	281,182	131,107
27,707	-12,358	281,183	130,962
28,721	-12,214	280,891	130,952
29,736	-12,261	280,479	130,704
30,750	-12,153	280,172	130,652
31,765	-12,230	279,997	130,485
32,780	-12,333	279,716	130,244
33,794	-12,240	279,623	130,278
34,809	-12,257	279,285	130,093
35,823	-12,342	278,987	129,862
36,838	-12,275	278,747	129,802
37,853	-12,245	278,460	129,686
38,867	-12,247	278,187	129,545
39,882	-12,082	277,966	129,587
40,896	-12,140	277,759	129,424
41,911	-12,308	277,382	129,078
42,926	-12,263	277,132	128,992
43,940	-12,270	276,986	128,906
44,955	-12,446	276,785	128,635
45,969	-12,327	276,503	128,605
46,984	-12,397	276,345	128,454
47,999	-12,328	276,069	128,379
49,013	-12,560	275,939	128,088
50,028	-12,463	275,631	128,025
51,042	-12,540	275,331	127,803
52,057	-12,528	275,110	127,699
53,071	-12,311	274,866	127,778
54,086	-12,440	274,638	127,540
55,101	-12,523	274,494	127,385
56,115	-12,388	274,378	127,446
57,130	-12,367	274,017	127,286
58,144	-12,402	273,782	127,132
59,159	-12,433	273,606	127,011
60,174	-12,196	273,212	127,037
61,188	-12,435	273,160	126,779
62,203	-12,337	272,936	126,755
63,217	-12,501	272,787	126,523
64,232	-12,281	272,322	126,500
65,247	-12,423	272,122	126,264
66,261	-12,414	272,079	126,240
67,276	-12,354	271,741	126,128
68,290	-12,165	271,407	126,136
69,305	-12,559	271,240	125,684
70,320	-12,522	271,078	125,632
71,334	-12,313	270,919	125,740
72,349	-12,252	270,524	125,601
73,363	-12,450	270,387	125,344
74,378	-12,431	270,238	125,281
75,393	-12,443	270,006	125,152
76,407	-12,236	269,671	125,175
77,422	-12,434	269,632	124,964
78,436	-12,391	269,296	124,837
79,451	-12,353	269,080	124,761
80,466	-12,343	268,839	124,647
81,480	-12,317	268,456	124,482
82,495	-12,433	268,463	124,368
83,509	-12,427	268,292	124,283
84,524	-12,183	268,052	124,383
85,539	-12,311	267,764	124,122
86,553	-12,479	267,710	123,933
87,568	-12,362	267,459	123,913
88,582	-12,446	267,081	123,650
89,597	-12,583	267,031	123,491
90,611	-12,480	266,774	123,455
91,626	-12,460	266,693	123,424
92,641	-12,350	266,376	123,367
93,655	-12,321	266,104	123,255
94,670	-12,280	265,949	123,210
95,684	-12,427	265,719	122,960
96,699	-12,639	265,792	122,791
97,714	-12,657	265,461	122,611
98,728	-12,567	265,153	122,539
99,743	-12,411	264,888	122,545
100,757	-12,390	264,797	122,512
101,772	-12,341	264,530	122,421
102,787	-12,348	264,196	122,249
103,801	-12,323	264,113	122,222
104,816	-12,564	264,030	121,957
105,830	-12,227	263,766	122,126
106,845	-12,408	263,522	121,840
107,860	-12,486	263,307	121,660
108,874	-12,341	262,970	121,623
109,889	-12,498	262,943	121,460
110,903	-12,507	262,597	121,281
111,918	-12,589	262,564	121,181
112,933	-12,501	262,363	121,157
113,947	-12,425	262,142	121,111
114,962	-12,315	261,903	121,088
115,976	-12,484	261,778	120,870
116,991	-12,555	261,634	120,729
118,006	-12,535	261,368	120,613
119,020	-12,497	261,224	120,570
120,035	-12,167	261,053	120,772
121,049	-12,320	260,928	120,568
122,064	-12,300	260,564	120,407
123,079	-12,409	260,382	120,216
124,093	-12,587	260,285	120,003
125,108	-12,398	260,020	120,036
126,122	-12,383	259,875	119,972
127,137	-12,328	259,621	119,892
128,151	-12,366	259,456	119,772
129,166	-12,363	259,212	119,652
130,181	-12,240	258,925	119,616
131,195	-12,427	258,909	119,434
132,210	-12,518	258,620	119,211
133,224	-12,599	258,405	119,030
134,239	-12,423	258,178	119,069
135,254	-12,549	258,079	118,903
136,268	-12,577	257,804	118,740
137,283	-12,408	257,524	118,748
138,297	-12,527	257,378	118,567
139,312	-12,615	257,169	118,384
140,327	-12,452	256,980	118,428
141,341	-12,362	256,905	118,461
142,356	-12,484	256,680	118,241
143,370	-12,369	256,349	118,177
144,385	-12,293	256,383	118,248
145,400	-12,187	256,073	118,186
146,414	-12,130	255,860	118,127
147,429	-12,002	255,629	118,120
148,443	-12,225	255,516	117,865
149,458	-12,172	255,297	117,800
150,473	-12,289	255,005	117,553
151,487	-12,370	254,922	117,435
152,502	-12,405	254,889	117,379
153,516	-12,173	254,576	117,423
154,531	-12,255	254,428	117,275
155,546	-12,333	254,389	117,179
156,560	-12,313	254,075	117,041
157,575	-12,382	253,695	116,796
158,589	-12,609	253,621	116,557
159,604	-12,327	253,458	116,714
160,619	-12,478	253,422	116,557
161,633	-12,151	253,088	116,673
162,648	-12,177	253,025	116,612
163,662	-12,361	252,746	116,315
164,677	-12,404	252,615	116,207
165,692	-12,269	252,370	116,200
166,706	-12,273	252,350	116,177
167,721	-12,191	252,210	116,172
168,735	-12,114	251,934	116,100
169,750	-12,349	251,792	115,824
170,764	-12,388	251,667	115,723
171,779	-12,257	251,459	115,729
172,794	-12,272	251,274	115,620
173,808	-12,503	251,072	115,321
174,823	-12,467	250,836	115,233
175,837	-12,470	250,600	115,112
176,852	-12,409	250,534	115,124
177,867	-12,352	250,195	115,005
178,881	-12,384	250,198	114,969
179,896	-12,315	249,899	114,879
180,910	-12,372	249,825	114,787
181,925	-12,275	249,649	114,778
182,940	-12,148	249,457	114,786
183,954	-12,352	249,350	114,555
184,969	-12,245	249,247	114,588
185,983	-12,324	249,070	114,430
186,998	-12,149	248,932	114,503
188,013	-12,281	248,758	114,302
189,027	-12,200	248,428	114,208
190,042	-12,171	248,199	114,116
191,056	-12,422	248,036	113,822
192,071	-12,636	247,886	113,564
193,086	-12,642	247,695	113,462
194,100	-12,580	247,447	113,390
195,115	-12,313	247,223	113,500
196,129	-12,336	247,147	113,435
197,144	-12,273	246,925	113,376
198,159	-12,410	246,722	113,159
199,173	-12,668	246,573	112,865
200,188	-12,779	246,266	112,623
201,202	-12,797	246,043	112,496
202,217	-12,853	246,065	112,450
203,232	-12,542	245,802	112,577
204,246	-13,044	245,440	111,986
205,261	-13,883	244,832	111,007
206,275	-13,630	244,934	111,252
207,290	-9,805	246,602	115,173
208,304	-2,590	248,920	122,273
209,319	1,773	249,909	126,394
210,334	2,737	250,183	127,327
211,348	3,043	250,279	127,620
212,363	3,531	250,076	127,912
213,377	3,720	250,111	128,077
214,392	3,930	250,090	128,229
215,407	4,195	249,763	128,271
216,421	3,994	249,643	128,031
217,436	4,074	249,502	128,013
218,450	3,794	249,324	127,678
219,465	3,870	249,195	127,664
220,480	3,594	249,031	127,340
221,494	3,902	248,609	127,367
222,509	3,390	248,467	126,860
223,523	3,170	248,148	126,503
224,538	2,945	247,944	126,202
225,553	2,993	247,703	126,108
226,567	2,520	247,628	125,668
227,582	2,763	247,375	125,729
228,596	2,646	247,329	125,598
229,611	2,748	247,031	125,519
230,626	2,705	246,830	125,371
231,640	2,497	246,906	125,226
232,655	2,608	246,819	125,263
233,669	2,666	246,397	125,085
234,684	2,592	246,280	124,953
235,699	2,796	246,254	125,096
236,713	2,753	246,031	124,937
237,728	2,968	245,621	124,893
238,742	2,744	245,679	124,728
239,757	2,866	245,430	124,691
240,772	2,756	245,342	124,545
241,786	2,597	245,144	124,304
242,801	2,668	244,928	124,241
243,815	2,562	244,758	124,057
244,830	2,789	244,541	124,121
245,844	2,724	244,554	124,064
246,859	2,863	244,376	124,075
247,874	2,972	244,183	124,055
248,888	2,742	244,198	123,865
249,903	2,672	243,990	123,691
250,917	2,987	243,942	123,911
251,932	2,996	243,716	123,793
252,947	2,993	243,467	123,653
253,961	2,838	243,357	123,461
254,976	3,015	243,187	123,506
255,990	2,613	243,058	123,105
257,005	2,832	242,893	123,187
258,020	3,032	242,747	123,263
259,034	2,824	242,533	122,976
260,049	2,887	242,229	122,862
261,063	2,853	242,159	122,788
262,078	2,743	241,974	122,595
263,093	2,797	242,033	122,657
264,107	2,938	241,667	122,574
265,122	3,050	241,426	122,530
266,136	2,992	241,468	122,495
267,151	3,210	241,195	122,520
268,166	2,829	241,163	122,187
269,180	2,641	240,938	121,912
270,195	2,873	240,734	121,984
271,209	2,768	240,741	121,892
272,224	2,885	240,475	121,840
273,239	2,634	240,398	121,590
274,253	2,684	240,071	121,454
275,268	2,797	240,102	121,549
276,282	2,784	239,679	121,313
277,297	2,813	239,684	121,328
278,312	2,714	239,546	121,168
279,326	2,943	239,338	121,235
280,341	2,762	239,242	121,031
281,355	2,862	239,077	121,016
282,370	2,999	238,890	121,020
283,384	2,829	238,841	120,849
284,399	2,623	238,700	120,604
285,414	2,760	238,509	120,605
286,428	2,806	238,461	120,606
287,443	2,811	238,207	120,471
288,457	3,005	237,968	120,493
289,472	2,603	238,021	120,192
290,487	2,724	237,667	120,097
291,501	2,757	237,468	120,012
292,516	2,682	237,240	119,827
293,530	2,716	237,250	119,848
294,545	2,991	237,146	120,001
295,560	2,770	237,049	119,768
296,574	2,777	236,758	119,616
297,589	2,730	236,696	119,537
298,603	3,056	236,505	119,685
299,618	2,855	236,321	119,424
300,633	2,929	236,201	119,411
301,647	2,897	236,198	119,373
302,662	2,928	236,045	119,309
303,676	2,964	235,852	119,229
304,691	3,057	235,662	119,195
305,706	2,856	235,565	118,979
306,720	2,985	235,380	118,975
307,735	2,813	235,309	118,794
308,749	2,970	235,146	118,824
309,764	2,811	234,843	118,536
310,779	2,805	234,590	118,394
311,793	2,663	234,401	118,178
312,808	2,577	234,403	118,102
313,822	2,906	234,192	118,240
314,837	3,111	234,098	118,341
315,852	2,914	233,933	118,094
316,866	3,116	233,768	118,157
317,881	2,987	233,848	118,086
318,895	3,131	233,619	118,072
319,910	2,814	233,472	117,742
320,925	3,057	233,079	117,721
321,939	2,593	233,044	117,335
322,954	2,988	232,962	117,587
323,968	2,888	232,656	117,345
324,983	2,902	232,579	117,307
325,997	3,117	232,393	117,368
327,012	2,894	232,309	117,144
328,027	2,965	232,363	117,216
329,041	3,069	231,973	117,088
330,056	3,051	231,907	117,030
331,070	2,854	231,874	116,852
332,085	3,152	231,461	116,861
333,100	2,996	231,377	116,689
334,114	2,937	231,113	116,500
335,129	2,825	231,102	116,399
336,143	3,120	231,008	116,567
337,158	3,086	230,835	116,443
338,173	2,997	230,667	116,280
339,187	3,027	230,572	116,245
340,202	2,717	230,530	115,977
341,216	2,765	230,334	115,905
342,231	3,015	230,020	115,926
343,246	3,048	229,913	115,887
344,260	2,894	229,852	115,729
345,275	2,939	229,747	115,700
346,289	2,994	229,518	115,616
347,304	2,843	229,412	115,438
348,319	3,082	229,214	115,509
349,333	2,973	228,965	115,291
350,348	3,124	228,832	115,327
351,362	2,786	228,798	115,045
352,377	2,866	228,632	115,012
353,392	2,886	228,542	114,971
354,406	2,716	228,382	114,753
355,421	195,436	1316,414	1392,094
356,435	156,754	1448,931	1392,050
