DTS Sentinel unit serial number:	SN410029Multiplexer serial number:	ORYXHardware model number:	OX2-SRSoftware version number:	ORYX F/W v4,00 Oryx Data Collector v3.7.2.0data status	okinstallation	B5 Nyhavnadifferential loss correction	single-endedforward channel	channel 2reverse channel	N/Adate	2023/12/13time	20:52:13forward acquisition time	300,00reverse acquisition time	0,00gamma	499,1914k internal	0,3157k external	0,3157temperature offset calibration	1,0000default loss term (dB/km)	0,3820temperature slope calibration	1,0000multiplexer offset coefficient	1,0000multiplexer slope coefficient	1,0000fibre end	0,00T internal ref (°C)	10,44T ext. ref 1 (°C)	-6,52T ext. ref 2 (°C)	-6,58length (m)	temperature (°C)	Stokes	anti-Stokes-744,400	-52,273	0,109	0,037
-743,385	-26,234	-0,194	-0,084
-742,371	48,213	0,124	0,085
-741,356	-155,150	-0,199	-0,009
-740,342	-76,644	0,096	0,025
-739,327	49,606	-0,303	-0,210
-738,312	-123,186	0,109	0,013
-737,298	-98,284	-0,463	-0,087
-736,283	717,107	0,031	0,061
-735,269	-132,511	-0,277	0,026
-734,254	102,284	0,062	0,054
-733,239	103,194	-0,413	-0,357
-732,225	-25,735	0,242	0,105
-731,210	-168,623	0,109	0,003
-730,196	36,447	-0,126	0,082
-729,181	-147,251	-0,011	-0,001
-728,167	133,997	-0,035	-0,034
-727,152	233,458	-0,012	0,015
-726,137	93,478	-0,112	-0,093
-725,123	271,412	-0,144	-0,188
-724,108	-200,000	-0,024	-0,093
-723,094	321,244	-0,067	-0,093
-722,079	-171,977	-0,132	-0,003
-721,064	25,420	0,047	-0,029
-720,050	-200,000	-0,025	-0,128
-719,035	225,922	-0,067	-0,081
-718,021	203,858	-0,024	-0,027
-717,006	-123,348	0,062	-0,007
-715,991	16,168	-0,128	-0,074
-714,977	239,880	0,078	-0,095
-713,962	-92,111	-0,207	0,043
-712,948	-200,000	-0,008	0,031
-711,933	-85,917	0,158	0,036
-710,918	178,661	0,026	-0,028
-709,904	-40,101	-0,252	-0,096
-708,889	-200,000	-0,039	-0,147
-707,875	-102,970	-0,118	-0,020
-706,860	643,346	0,081	-0,152
-705,845	541,283	0,058	-0,101
-704,831	1,228	0,133	-0,070
-703,816	-200,000	-0,001	-0,165
-702,802	-96,446	-0,057	-0,011
-701,787	800,000	-0,056	-0,143
-700,772	-200,000	-0,013	-0,117
-699,758	100,830	0,069	-0,059
-698,743	438,494	0,044	0,070
-697,729	-92,074	0,085	0,018
-696,714	231,769	-0,069	-0,084
-695,699	-49,343	0,019	0,007
-694,685	-200,000	0,009	-0,081
-693,670	483,926	-0,103	-0,172
-692,656	-3,286	-0,028	-0,014
-691,641	-65,456	0,023	0,007
-690,627	-200,000	0,008	0,151
-689,612	-200,000	0,006	-0,159
-688,597	800,000	-0,054	0,114
-687,583	-200,000	0,002	-0,143
-686,568	0,620	-0,127	-0,067
-685,554	4,255	-0,152	0,082
-684,539	658,712	-0,015	-0,029
-683,524	-81,851	-0,035	0,008
-682,510	-98,115	-0,197	-0,037
-681,495	317,734	-0,023	-0,032
-680,481	800,000	-0,025	0,053
-679,466	-62,024	-0,097	0,030
-678,451	-200,000	0,001	-0,017
-677,437	181,417	0,111	-0,120
-676,422	4,655	-0,058	0,031
-675,408	-200,000	-0,008	0,108
-674,393	-200,000	0,001	-0,010
-673,378	636,529	-0,045	0,084
-672,364	800,000	-0,031	0,085
-671,349	800,000	-0,021	-0,056
-670,335	430,365	0,063	-0,101
-669,320	-159,523	-0,131	-0,005
-668,305	287,665	0,091	0,121
-667,291	-200,000	-0,017	-0,142
-666,276	211,989	0,071	-0,082
-665,262	800,000	-0,034	-0,087
-664,247	-200,000	-0,007	0,082
-663,232	-17,013	-0,092	-0,042
-662,218	-200,000	0,013	0,045
-661,203	800,000	-0,035	0,090
-660,189	-200,000	0,007	0,180
-659,174	800,000	-0,014	-0,042
-658,159	-36,316	-0,099	-0,039
-657,145	-54,798	0,027	0,009
-656,130	-41,130	0,061	0,023
-655,116	18,736	0,039	-0,023
-654,101	-73,255	-0,079	0,021
-653,086	-200,000	-0,031	0,106
-652,072	800,000	-0,052	0,123
-651,057	279,967	-0,055	0,072
-650,043	800,000	0,027	0,086
-649,028	-56,240	-0,221	0,072
-648,014	-23,028	0,135	0,059
-646,999	-38,481	0,123	0,047
-645,984	393,233	-0,019	-0,029
-644,970	-104,009	-0,153	0,026
-643,955	6,783	-0,006	0,003
-642,941	-9,422	-0,199	-0,097
-641,926	-49,571	0,111	-0,038
-640,911	800,000	0,012	-0,036
-639,897	148,921	-0,046	-0,045
-638,882	590,462	-0,053	-0,097
-637,868	800,000	0,007	-0,020
-636,853	-51,256	-0,142	-0,049
-635,838	-104,709	-0,155	0,026
-634,824	-200,000	-0,029	-0,099
-633,809	-58,786	0,058	0,018
-632,795	296,419	-0,070	-0,094
-631,780	-110,587	-0,033	-0,005
-630,765	-200,000	-0,008	-0,032
-629,751	-98,201	-0,140	0,026
-628,736	-129,215	0,192	0,019
-627,722	-112,307	-0,099	-0,014
-626,707	-113,068	-0,083	0,012
-625,692	73,046	-0,016	-0,012
-624,678	210,202	-0,031	0,036
-623,663	220,273	0,105	0,124
-622,649	47,988	0,075	0,052
-621,634	642,706	-0,085	-0,160
-620,619	800,000	-0,013	-0,035
-619,605	-74,173	0,065	-0,017
-618,590	-48,176	-0,166	-0,059
-617,576	680,612	0,081	0,155
-616,561	478,532	-0,025	-0,042
-615,546	-200,000	0,001	-0,006
-614,532	-48,550	-0,027	0,010
-613,517	800,000	-0,041	-0,110
-612,503	-72,799	0,071	0,019
-611,488	-200,000	-0,011	0,045
-610,474	-200,000	0,004	0,014
-609,459	-86,860	0,101	0,023
-608,444	178,158	-0,123	-0,131
-607,430	-98,904	-0,052	-0,010
-606,415	735,216	-0,051	-0,101
-605,401	-26,966	-0,056	-0,024
-604,386	320,150	-0,037	0,052
-603,371	258,404	0,084	0,106
-602,357	800,000	-0,030	0,074
-601,342	172,318	-0,049	-0,052
-600,328	111,934	0,086	0,076
-599,313	-200,000	0,012	0,040
-598,298	-68,468	0,014	0,004
-597,284	162,740	0,096	0,099
-596,269	449,472	0,058	0,095
-595,255	800,000	-0,020	-0,064
-594,240	-88,578	-0,052	-0,011
-593,225	547,950	0,051	-0,090
-592,211	108,366	0,134	0,117
-591,196	238,571	-0,077	-0,094
-590,182	-200,000	-0,002	-0,027
-589,167	280,878	-0,026	0,034
-588,152	130,633	-0,084	-0,079
-587,138	-200,000	-0,002	0,024
-586,123	-200,000	-0,011	0,071
-585,109	36,071	-0,174	0,112
-584,094	149,031	0,109	0,108
-583,079	-200,000	-0,029	0,165
-582,065	-56,887	-0,085	-0,027
-581,050	800,000	0,056	0,163
-580,036	-200,000	0,015	0,103
-579,021	800,000	0,027	-0,067
-578,006	-47,950	-0,016	-0,006
-576,992	-130,254	0,079	0,008
-575,977	800,000	-0,054	-0,118
-574,963	-61,683	0,064	0,020
-573,948	737,705	0,011	0,022
-572,934	674,410	-0,038	0,072
-571,919	293,159	-0,107	-0,143
-570,904	-200,000	-0,007	-0,037
-569,890	-200,000	0,030	0,125
-568,875	800,000	0,028	0,059
-567,861	-30,373	0,064	0,026
-566,846	-200,000	-0,008	0,183
-565,831	34,816	-0,116	-0,074
-564,817	-48,326	0,095	0,033
-563,802	800,000	-0,008	-0,019
-562,788	347,293	-0,058	-0,085
-561,773	172,822	-0,076	0,080
-560,758	505,184	0,035	0,059
-559,744	-180,980	-0,055	0,001
-558,729	-200,000	-0,001	-0,073
-557,715	24,691	-0,099	-0,060
-556,700	-200,000	-0,057	-0,213
-555,685	-200,000	0,027	-0,136
-554,671	-80,200	-0,033	-0,008
-553,656	-120,897	0,129	-0,016
-552,642	-117,472	0,071	0,009
-551,627	-200,000	0,023	0,083
-550,612	-21,858	0,039	-0,017
-549,598	-200,000	-0,001	-0,084
-548,583	556,507	0,027	-0,048
-547,569	-101,440	0,040	-0,007
-546,554	76,143	0,040	0,031
-545,539	18,235	0,042	0,024
-544,525	118,459	0,071	0,064
-543,510	194,924	-0,087	-0,097
-542,496	-140,252	-0,150	0,011
-541,481	581,927	0,035	-0,062
-540,466	-200,000	-0,002	-0,089
-539,452	602,666	-0,061	0,111
-538,437	99,372	0,065	0,055
-537,423	53,092	0,054	-0,038
-536,408	528,317	-0,069	-0,119
-535,393	-55,864	-0,134	-0,043
-534,379	-67,614	-0,120	-0,034
-533,364	-145,447	0,165	-0,011
-532,350	-159,260	0,087	0,004
-531,335	4,517	-0,081	0,043
-530,321	6,666	0,144	-0,078
-529,306	-200,000	0,014	-0,098
-528,291	73,270	-0,047	-0,036
-527,277	-200,000	-0,006	0,030
-526,262	154,314	-0,086	-0,087
-525,248	-75,021	0,084	0,022
-524,233	-90,064	-0,037	-0,008
-523,218	800,000	0,030	0,073
-522,204	173,472	-0,131	0,138
-521,189	-200,000	-0,067	-0,252
-520,175	-200,000	0,029	0,125
-519,160	-36,787	-0,056	-0,022
-518,145	-23,091	-0,055	-0,024
-517,131	63,857	-0,063	0,046
-516,116	622,938	0,047	0,087
-515,102	800,000	-0,032	0,081
-514,087	-200,000	-0,006	-0,184
-513,072	587,627	-0,097	-0,175
-512,058	800,000	-0,046	-0,096
-511,043	-200,000	0,003	-0,165
-510,029	1,571	-0,047	0,025
-509,014	-200,000	0,004	0,055
-507,999	43,882	0,087	-0,058
-506,985	356,297	-0,043	-0,062
-505,970	-37,088	0,111	0,043
-504,956	419,996	0,015	0,023
-503,941	-200,000	-0,013	-0,058
-502,926	42,104	0,063	0,042
-501,912	-200,000	-0,007	0,075
-500,897	-200,000	0,027	0,153
-499,883	800,000	-0,048	-0,102
-498,868	-200,000	-0,106	-0,000
-497,853	-61,287	-0,048	-0,015
-496,839	-162,596	0,177	-0,006
-495,824	-7,085	0,036	-0,018
-494,810	381,199	0,076	0,115
-493,795	-45,124	-0,071	0,026
-492,781	-91,899	-0,090	-0,019
-491,766	-56,550	-0,092	-0,030
-490,751	14,958	-0,009	0,005
-489,737	22,152	-0,168	-0,100
-488,722	173,827	-0,111	0,117
-487,708	-143,283	0,035	-0,002
-486,693	146,044	0,138	-0,135
-485,678	714,967	-0,025	-0,049
-484,664	277,729	-0,036	0,047
-483,649	-75,066	-0,109	-0,028
-482,635	40,824	0,043	0,028
-481,620	-200,000	0,019	0,124
-480,605	40,742	0,019	0,012
-479,591	76,833	-0,055	0,043
-478,576	-66,404	0,057	-0,016
-477,562	47,648	0,088	0,060
-476,547	-200,000	0,011	-0,043
-475,532	244,657	-0,039	-0,048
-474,518	-200,000	0,013	-0,079
-473,503	800,000	0,044	0,118
-472,489	78,134	-0,048	0,038
-471,474	-200,000	0,008	0,123
-470,459	-200,000	-0,005	-0,020
-469,445	800,000	0,022	0,051
-468,430	-65,002	-0,060	0,018
-467,416	-14,916	-0,015	-0,007
-466,401	19,320	0,035	0,020
-465,386	438,401	-0,115	0,183
-464,372	128,087	0,093	0,087
-463,357	177,064	0,089	-0,094
-462,343	-200,000	-0,014	0,074
-461,328	-33,668	-0,084	-0,034
-460,313	200,082	-0,033	0,037
-459,299	106,541	-0,056	0,049
-458,284	58,937	0,119	-0,086
-457,270	83,069	0,084	0,067
-456,255	171,564	0,052	-0,055
-455,241	-64,304	-0,169	0,050
-454,226	800,000	-0,038	-0,076
-453,211	-200,000	-0,002	0,023
-452,197	61,152	-0,041	0,030
-451,182	-200,000	0,008	0,077
-450,168	-62,318	0,189	0,057
-449,153	18,070	-0,117	0,068
-448,138	-136,813	0,097	0,008
-447,124	-3,201	-0,073	-0,037
-446,109	495,198	0,035	-0,059
-445,095	194,700	-0,129	0,143
-444,080	-66,269	-0,087	-0,025
-443,065	-200,000	0,001	0,085
-442,051	-54,505	0,018	0,006
-441,036	634,848	0,039	0,072
-440,022	6,769	-0,038	-0,021
-439,007	209,810	0,036	0,041
-437,992	800,000	-0,002	-0,006
-436,978	95,728	0,053	0,044
-435,963	395,459	-0,011	0,017
-434,949	169,293	0,073	-0,076
-433,934	-91,992	-0,086	-0,018
-432,919	36,095	0,051	0,032
-431,905	-200,000	0,012	0,042
-430,890	-200,000	-0,003	0,138
-429,876	800,000	-0,009	-0,030
-428,861	251,816	0,036	-0,045
-427,846	-200,000	-0,005	-0,079
-426,832	-200,000	0,013	-0,102
-425,817	133,844	-0,008	0,007
-424,803	-188,235	0,091	0,001
-423,788	-12,941	0,031	-0,015
-422,773	-200,000	-0,022	0,177
-421,759	-110,269	-0,067	-0,010
-420,744	-61,236	-0,100	0,031
-419,730	614,205	-0,027	0,049
-418,715	-13,945	-0,050	0,023
-417,701	360,016	-0,005	0,008
-416,686	-157,503	0,120	0,005
-415,671	396,080	0,088	-0,133
-414,657	783,840	0,019	0,037
-413,642	-39,832	-0,028	0,011
-412,628	-200,000	0,000	0,026
-411,613	-200,000	-0,005	-0,029
-410,598	474,470	0,011	0,019
-409,584	-200,000	-0,003	0,090
-408,569	-38,899	0,072	-0,027
-407,555	-82,429	-0,032	0,007
-406,540	127,512	-0,035	-0,033
-405,525	41,180	-0,077	-0,051
-404,511	-200,000	-0,010	0,096
-403,496	135,069	0,085	-0,081
-402,482	800,000	0,026	0,059
-401,467	171,085	0,031	0,033
-400,452	-130,668	0,148	-0,014
-399,438	800,000	0,054	-0,119
-398,423	-6,250	0,082	0,041
-397,409	-152,996	0,031	-0,002
-396,394	-17,497	0,069	0,032
-395,379	-200,000	0,009	0,097
-394,365	-200,000	-0,005	-0,085
-393,350	41,466	0,053	-0,035
-392,336	-2,709	0,099	-0,050
-391,321	95,357	0,082	-0,068
-390,306	12,423	-0,116	-0,065
-389,292	-200,000	0,004	0,118
-388,277	-134,755	0,027	-0,002
-387,263	-77,092	0,060	0,015
-386,248	246,186	0,109	0,134
-385,233	-200,000	0,035	0,171
-384,219	20,571	0,086	-0,050
-383,204	135,959	0,038	0,036
-382,190	599,875	0,057	-0,103
-381,175	294,461	-0,089	-0,119
-380,160	-78,106	0,130	-0,032
-379,146	-200,000	-0,012	-0,094
-378,131	-200,000	0,003	-0,058
-377,117	-200,000	-0,011	0,053
-376,102	-105,190	-0,142	0,023
-375,088	-95,378	-0,047	-0,009
-374,073	551,763	0,090	-0,158
-373,058	333,168	-0,055	-0,078
-372,044	-31,145	0,143	0,058
-371,029	56,001	-0,030	-0,021
-370,015	55,885	-0,155	0,109
-369,000	125,701	0,108	-0,099
-367,985	25,526	0,042	0,025
-366,971	-200,000	-0,011	-0,075
-365,956	189,086	0,061	0,067
-364,942	-174,231	-0,025	-0,001
-363,927	-156,447	-0,023	0,001
-362,912	-200,000	-0,032	0,143
-361,898	-91,732	0,047	-0,010
-360,883	135,824	-0,063	0,059
-359,869	800,000	-0,080	-0,185
-358,854	-22,537	-0,039	0,017
-357,839	-54,399	-0,090	-0,029
-356,825	-61,684	0,113	-0,034
-355,810	-200,000	-0,022	-0,109
-354,796	249,172	-0,047	-0,058
-353,781	11,676	-0,079	-0,044
-352,766	2,846	-0,117	0,061
-351,752	95,412	0,050	-0,041
-350,737	-200,000	-0,014	-0,129
-349,723	136,949	0,056	0,053
-348,708	150,384	0,046	-0,046
-347,693	298,823	-0,023	-0,031
-346,679	36,450	-0,072	-0,046
-345,664	144,882	-0,167	-0,162
-344,650	11,647	0,115	0,064
-343,635	-163,213	-0,106	0,004
-342,620	800,000	0,007	-0,018
-341,606	-50,202	0,024	-0,008
-340,591	-200,000	0,030	-0,119
-339,577	-200,000	-0,012	-0,078
-338,562	-88,686	-0,152	-0,033
-337,548	-51,079	0,087	-0,029
-336,533	-126,049	0,046	-0,005
-335,518	-200,000	-0,018	-0,081
-334,504	46,201	-0,055	0,037
-333,489	-24,935	-0,104	-0,045
-332,475	-59,136	-0,036	-0,011
-331,460	200,797	-0,068	0,077
-330,445	56,077	-0,116	-0,082
-329,431	197,616	0,024	-0,027
-328,416	-61,148	0,049	-0,015
-327,402	173,030	0,048	-0,050
-326,387	-200,000	0,002	0,091
-325,372	-45,871	0,110	0,039
-324,358	-200,000	-0,014	-0,096
-323,343	121,204	0,125	-0,113
-322,329	24,115	0,057	0,034
-321,314	-195,069	-0,032	0,000
-320,299	-200,000	-0,016	0,130
-319,285	101,563	0,012	0,010
-318,270	266,799	0,040	-0,051
-317,256	-200,000	0,004	-0,143
-316,241	-200,000	0,012	0,050
-315,226	129,316	-0,030	-0,028
-314,212	800,000	0,053	0,139
-313,197	-137,114	0,056	-0,005
-312,183	39,964	0,037	0,024
-311,168	7,766	-0,179	-0,097
-310,153	-200,000	-0,050	-0,181
-309,139	386,687	-0,071	0,107
-308,124	54,746	0,072	-0,050
-307,110	286,029	0,050	-0,066
-306,095	242,461	0,095	0,116
-305,080	-200,000	-0,004	-0,038
-304,066	20,233	-0,060	-0,035
-303,051	128,465	0,044	0,041
-302,037	800,000	-0,050	0,119
-301,022	800,000	0,031	-0,086
-300,008	126,067	0,033	0,030
-298,993	-78,961	0,124	-0,030
-297,978	172,843	0,021	0,022
-296,964	127,817	0,086	-0,079
-295,949	-200,000	0,016	-0,055
-294,935	121,231	-0,041	-0,037
-293,920	125,581	-0,117	0,107
-292,905	130,059	-0,090	0,084
-291,891	12,383	0,053	-0,030
-290,876	234,324	0,048	0,057
-289,862	29,486	-0,042	0,026
-288,847	-200,000	0,031	-0,143
-287,832	337,576	0,091	-0,128
-286,818	-17,460	-0,030	-0,013
-285,803	-200,000	-0,008	0,073
-284,789	-169,479	0,085	-0,002
-283,774	91,780	0,013	-0,010
-282,759	8,203	0,058	0,031
-281,745	161,541	-0,109	-0,110
-280,730	-200,000	-0,020	-0,126
-279,716	186,086	-0,136	0,147
-278,701	800,000	0,042	0,085
-277,686	-62,821	0,103	0,031
-276,672	-4,861	0,036	0,018
-275,657	207,087	0,075	-0,085
-274,643	36,070	-0,075	0,048
-273,628	-44,134	-0,043	0,015
-272,613	223,168	-0,043	0,050
-271,599	51,536	0,059	-0,040
-270,584	800,000	-0,045	0,105
-269,570	-200,000	-0,031	0,129
-268,555	558,008	-0,034	0,060
-267,540	800,000	-0,050	0,105
-266,526	-200,000	0,007	-0,025
-265,511	130,594	0,053	0,049
-264,497	-140,452	0,058	0,004
-263,482	208,182	0,163	0,185
-262,467	-15,099	-0,148	0,068
-261,453	48,195	0,170	-0,115
-260,438	-29,429	-0,086	-0,035
-259,424	114,347	-0,005	0,004
-258,409	59,936	0,016	0,011
-257,395	-200,000	-0,020	-0,121
-256,380	180,124	0,093	-0,099
-255,365	800,000	0,041	0,092
-254,351	355,316	0,044	0,063
-253,336	434,525	-0,027	0,043
-252,322	151,464	-0,043	-0,042
-251,307	-124,190	0,152	0,017
-250,292	133,980	0,100	-0,094
-249,278	-104,578	-0,081	-0,013
-248,263	-90,574	0,138	-0,029
-247,249	247,529	-0,033	0,040
-246,234	21,742	0,083	-0,049
-245,219	-137,228	0,062	-0,005
-244,205	800,000	0,023	-0,070
-243,190	81,700	0,026	0,020
-242,176	-200,000	0,019	0,062
-241,161	157,705	0,137	0,137
-240,146	-20,630	0,057	-0,025
-239,132	24,839	0,030	0,018
-238,117	-129,463	-0,043	0,004
-237,103	0,986	0,051	-0,027
-236,088	-200,000	-0,002	-0,009
-235,073	569,238	-0,082	0,146
-234,059	276,766	0,081	0,104
-233,044	-200,000	0,016	0,084
-232,030	-200,000	0,010	0,070
-231,015	-154,581	-0,167	0,008
-230,000	252,985	0,031	0,038
-228,986	800,000	-0,027	-0,074
-227,971	181,387	0,041	-0,044
-226,957	800,000	0,031	0,091
-225,942	-174,979	0,113	0,002
-224,927	800,000	0,008	-0,021
-223,913	800,000	-0,023	0,067
-222,898	16,343	-0,039	0,022
-221,884	-1,089	0,036	0,019
-220,869	197,995	0,103	0,114
-219,855	45,296	-0,036	0,024
-218,840	489,072	-0,073	0,120
-217,825	800,000	-0,065	-0,155
-216,811	-200,000	0,028	-0,090
-215,796	800,000	-0,067	-0,147
-214,782	-200,000	-0,002	0,085
-213,767	-200,000	-0,041	0,178
-212,752	-36,006	0,092	0,036
-211,738	800,000	-0,022	-0,049
-210,723	-70,403	-0,042	-0,012
-209,709	-17,859	-0,088	-0,040
-208,694	183,276	-0,077	-0,082
-207,679	-37,418	-0,049	0,019
-206,665	-200,000	0,003	0,069
-205,650	-11,584	0,113	0,053
-204,636	-23,517	0,130	-0,056
-203,621	-200,000	-0,011	0,089
-202,606	222,567	-0,093	-0,108
-201,592	187,301	0,044	-0,047
-200,577	-130,199	-0,114	-0,011
-199,563	-138,716	-0,063	0,005
-198,548	190,964	0,025	-0,027
-197,533	460,801	0,064	0,103
-196,519	594,843	0,050	0,091
-195,504	-116,004	0,129	-0,017
-194,490	393,109	-0,025	-0,037
-193,475	-97,950	-0,049	0,009
-192,460	122,820	0,135	0,122
-191,446	190,484	0,071	-0,077
-190,431	24,781	0,013	-0,008
-189,417	56,103	0,037	0,026
-188,402	693,475	0,039	-0,073
-187,387	45,966	0,042	0,028
-186,373	8,998	-0,010	0,006
-185,358	54,298	0,041	-0,028
-184,344	36,426	0,008	-0,005
-183,329	103,270	0,063	0,053
-182,315	353,155	-0,023	-0,032
-181,300	73,378	-0,099	-0,075
-180,285	209,573	0,055	-0,062
-179,271	336,114	-0,105	-0,147
-178,256	-200,000	0,043	0,159
-177,242	302,831	-0,037	0,049
-176,227	800,000	0,056	-0,155
-175,212	-200,000	-0,019	0,107
-174,198	-200,000	-0,018	0,115
-173,183	93,210	-0,048	-0,039
-172,169	-200,000	-0,004	-0,135
-171,154	32,607	-0,010	-0,006
-170,139	-200,000	0,024	0,186
-169,125	-200,000	0,007	-0,063
-168,110	-122,852	0,115	-0,013
-167,096	-6,791	-0,056	0,028
-166,081	-200,000	0,014	-0,138
-165,066	800,000	-0,007	-0,014
-164,052	-200,000	-0,003	-0,045
-163,037	293,662	-0,053	0,069
-162,023	-200,000	0,008	0,041
-161,008	-11,238	-0,054	0,026
-159,993	-200,000	-0,022	-0,078
-158,979	-200,000	-0,017	-0,063
-157,964	122,021	-0,084	0,076
-156,950	301,508	0,072	0,096
-155,935	65,582	-0,009	0,007
-154,920	-53,722	-0,137	-0,045
-153,906	55,768	0,105	0,073
-152,891	563,867	-0,059	-0,103
-151,877	274,251	0,048	0,061
-150,862	-200,000	0,009	-0,115
-149,847	-56,627	-0,166	0,053
-148,833	-200,000	0,016	0,069
-147,818	-200,000	0,026	0,106
-146,804	-128,268	0,086	-0,009
-145,789	-89,778	-0,069	0,015
-144,775	207,771	-0,082	-0,093
-143,760	-200,000	0,001	-0,035
-142,745	523,033	-0,079	-0,135
-141,731	800,000	-0,035	-0,087
-140,716	54,893	0,093	-0,065
-139,702	441,734	-0,049	0,077
-138,687	155,919	0,106	-0,105
-137,672	115,927	-0,072	0,064
-136,658	747,966	-0,030	-0,058
-135,643	-43,185	-0,069	-0,025
-134,629	-200,000	0,006	0,139
-133,614	-200,000	-0,005	0,202
-132,599	-168,927	0,149	-0,004
-131,585	91,494	-0,064	0,052
-130,570	-128,285	-0,111	0,011
-129,556	81,274	0,095	-0,074
-128,541	-21,750	-0,110	0,048
-127,526	612,572	0,012	0,021
-126,512	-53,961	-0,077	-0,025
-125,497	-200,000	-0,003	-0,041
-124,483	-200,000	-0,001	-0,006
-123,468	-200,000	0,018	0,079
-122,453	476,741	-0,036	-0,058
-121,439	-200,000	-0,028	-0,113
-120,424	25,422	-0,118	0,070
-119,410	121,772	-0,029	0,026
-118,395	119,986	0,134	0,120
-117,380	100,475	0,110	0,092
-116,366	-200,000	-0,020	0,097
-115,351	800,000	-0,015	0,040
-114,337	8,437	0,082	-0,044
-113,322	48,536	0,124	0,084
-112,307	254,471	0,077	-0,095
-111,293	-31,866	0,095	0,038
-110,278	34,321	-0,010	-0,006
-109,264	-69,587	0,042	-0,011
-108,249	-84,245	0,020	0,004
-107,234	-93,069	0,016	-0,003
-106,220	-12,629	-0,091	0,043
-105,205	-200,000	0,011	-0,105
-104,191	-54,798	-0,032	0,010
-103,176	72,809	0,049	-0,037
-102,162	-200,000	0,025	0,117
-101,147	-200,000	-0,023	-0,093
-100,132	535,096	-0,061	0,104
-99,118	792,986	0,030	-0,059
-98,103	-4,231	0,133	0,066
-97,089	-200,000	-0,004	0,041
-96,074	-11,358	-0,040	0,019
-95,059	-73,917	-0,045	-0,012
-94,045	-200,000	0,028	-0,109
-93,030	-200,000	0,005	-0,064
-92,016	214,425	0,019	-0,022
-91,001	-200,000	-0,007	0,043
-89,986	800,000	-0,028	-0,081
-88,972	800,000	0,061	0,174
-87,957	-200,000	-0,009	-0,034
-86,943	56,016	0,075	-0,052
-85,928	33,680	0,061	-0,038
-84,913	-105,780	-0,084	0,014
-83,899	800,000	-0,009	0,026
-82,884	226,405	-0,071	0,083
-81,870	-32,270	-0,082	0,033
-80,855	800,000	0,008	-0,023
-79,840	800,000	0,062	-0,150
-78,826	-54,651	0,172	-0,055
-77,811	-22,747	-0,091	0,039
-76,797	-55,410	-0,096	-0,031
-75,782	-97,108	0,059	-0,011
-74,767	-96,087	0,094	-0,018
-73,753	410,352	-0,077	-0,117
-72,738	800,000	0,085	-0,172
-71,724	-87,944	0,086	0,018
-70,709	43,946	-0,048	-0,031
-69,694	62,664	0,088	0,063
-68,680	-96,147	0,043	0,008
-67,665	-100,205	0,074	-0,013
-66,651	209,929	-0,055	0,063
-65,636	-200,000	0,015	0,089
-64,622	-200,000	0,003	0,041
-63,607	-124,059	-0,156	0,017
-62,592	400,477	-0,029	-0,044
-61,578	-63,084	0,048	-0,014
-60,563	-151,260	-0,145	-0,008
-59,549	-200,000	-0,003	0,121
-58,534	74,621	-2,410	-1,818
-57,519	800,000	0,192	-0,409
-56,505	-200,000	-1,556	-5,356
-55,490	226,017	0,974	1,136
-54,476	800,000	5,352	11,833
-53,461	-200,000	20,698	339,719
-52,446	800,000	762,387	2363,995
-51,432	541,041	1667,299	2861,846
-50,417	112,125	1636,405	1419,299
-49,403	80,240	1286,188	992,429
-48,388	28,492	1028,599	622,846
-47,373	19,780	992,699	572,212
-46,359	15,001	980,308	549,303
-45,344	11,023	976,939	534,278
-44,330	11,494	974,851	534,667
-43,315	10,546	973,211	530,627
-42,300	10,505	971,812	529,710
-41,286	10,506	970,781	529,128
-40,271	10,515	969,858	528,635
-39,257	10,429	969,129	527,934
-38,242	10,475	967,897	527,392
-37,227	10,402	967,103	526,700
-36,213	10,415	966,532	526,410
-35,198	10,410	965,460	525,789
-34,184	10,484	964,837	525,671
-33,169	10,401	963,831	524,832
-32,154	10,469	963,132	524,651
-31,140	10,484	962,106	524,119
-30,125	10,563	961,039	523,773
-29,111	10,546	960,332	523,315
-28,096	10,552	959,688	522,961
-27,082	10,494	959,146	522,458
-26,067	10,465	958,446	521,960
-25,052	10,480	957,403	521,420
-24,038	10,513	956,845	521,204
-23,023	10,429	956,174	520,545
-22,009	10,481	955,625	520,393
-20,994	10,527	954,838	520,093
-19,979	10,463	954,338	519,593
-18,965	10,460	953,812	519,276
-17,950	10,443	953,148	518,839
-16,936	10,429	952,510	518,426
-15,921	10,424	951,771	517,987
-14,906	10,394	950,991	517,447
-13,892	10,408	950,160	517,020
-12,877	10,335	949,786	516,560
-11,863	10,263	949,301	516,045
-10,848	10,400	948,502	516,032
-9,833	10,478	947,825	515,890
-8,819	10,449	947,216	515,445
-7,804	10,396	946,674	514,963
-6,790	10,369	946,129	514,558
-5,775	10,402	945,484	514,291
-4,760	10,419	945,069	514,102
-3,746	10,387	944,322	513,571
-2,731	10,229	943,558	512,633
-1,717	10,271	942,713	512,287
-0,702	10,226	942,288	511,893
0,313	10,091	941,654	511,890
1,327	13,781	939,303	522,273
2,342	23,018	789,071	463,161
3,356	18,204	454,836	259,621
4,371	-9,484	315,613	150,474
5,386	-13,629	297,794	137,737
6,400	-15,738	291,781	132,834
7,415	-15,614	289,220	131,780
8,429	-16,082	287,558	130,549
9,444	-16,140	286,725	130,102
10,459	-16,001	286,071	129,930
11,473	-16,175	285,478	129,479
12,488	-15,915	284,942	129,478
13,502	-16,072	284,484	129,105
14,517	-15,815	284,016	129,132
15,531	-15,726	283,710	129,067
16,546	-15,573	283,413	129,069
17,561	-15,630	283,038	128,832
18,575	-15,382	282,688	128,901
19,590	-15,589	282,298	128,512
20,604	-15,382	281,958	128,545
21,619	-15,451	281,640	128,323
22,634	-15,416	281,256	128,170
23,648	-15,514	281,068	127,978
24,663	-15,614	280,748	127,725
25,677	-15,422	280,391	127,735
26,692	-15,289	280,149	127,741
27,707	-15,282	279,722	127,542
28,721	-15,427	279,545	127,312
29,736	-15,528	279,401	127,138
30,750	-15,388	279,009	127,082
31,765	-15,532	278,699	126,792
32,780	-15,457	278,626	126,819
33,794	-15,531	278,333	126,603
34,809	-15,404	278,133	126,623
35,823	-15,303	277,697	126,508
36,838	-15,569	277,651	126,224
37,853	-15,296	277,198	126,265
38,867	-15,389	276,988	126,070
39,882	-15,322	276,685	125,984
40,896	-15,276	276,505	125,934
41,911	-15,357	276,328	125,766
42,926	-15,250	275,985	125,700
43,940	-15,449	275,641	125,345
44,955	-15,386	275,556	125,354
45,969	-15,349	275,380	125,298
46,984	-15,295	275,215	125,262
47,999	-15,457	274,943	124,975
49,013	-15,447	274,774	124,897
50,028	-15,290	274,481	124,900
51,042	-15,391	274,313	124,717
52,057	-15,226	273,919	124,681
53,071	-15,303	273,772	124,531
54,086	-15,369	273,431	124,304
55,101	-15,496	273,288	124,109
56,115	-15,541	273,205	124,019
57,130	-15,514	272,703	123,804
58,144	-15,528	272,461	123,671
59,159	-15,436	272,062	123,564
60,174	-15,624	272,192	123,438
61,188	-15,581	271,902	123,335
62,203	-15,556	271,738	123,272
63,217	-15,414	271,382	123,231
64,232	-15,505	271,123	123,018
65,247	-15,608	270,982	122,848
66,261	-15,653	270,648	122,645
67,276	-15,400	270,485	122,793
68,290	-15,495	270,259	122,592
69,305	-15,431	270,023	122,533
70,320	-15,270	269,785	122,562
71,334	-15,417	269,656	122,357
72,349	-15,463	269,337	122,159
73,363	-15,725	269,049	121,778
74,378	-15,672	268,977	121,783
75,393	-15,537	268,643	121,745
76,407	-15,440	268,489	121,752
77,422	-15,449	268,426	121,704
78,436	-15,587	267,978	121,365
79,451	-15,514	267,819	121,348
80,466	-15,615	267,495	121,099
81,480	-15,554	267,440	121,119
82,495	-15,381	267,087	121,106
83,509	-15,341	266,838	121,019
84,524	-15,393	266,778	120,933
85,539	-15,360	266,602	120,873
86,553	-15,312	266,196	120,721
87,568	-15,259	266,005	120,672
88,582	-15,521	265,888	120,371
89,597	-15,241	265,679	120,519
90,611	-15,295	265,420	120,342
91,626	-15,562	265,186	119,984
92,641	-15,234	264,943	120,159
93,655	-15,274	264,951	120,115
94,670	-15,301	264,685	119,960
95,684	-15,401	264,349	119,707
96,699	-15,289	264,129	119,697
97,714	-15,268	264,048	119,669
98,728	-15,242	263,952	119,638
99,743	-15,433	263,698	119,341
100,757	-15,478	263,552	119,224
101,772	-15,463	263,270	119,099
102,787	-15,341	263,096	119,119
103,801	-15,462	262,792	118,862
104,816	-15,543	262,565	118,677
105,830	-15,381	262,478	118,772
106,845	-15,521	262,259	118,537
107,860	-15,483	262,022	118,453
108,874	-15,565	261,798	118,268
109,889	-15,360	261,439	118,278
110,903	-15,402	261,296	118,165
111,918	-15,519	261,074	117,951
112,933	-15,428	261,013	117,993
113,947	-15,344	260,696	117,914
114,962	-15,535	260,425	117,612
115,976	-15,413	260,361	117,680
116,991	-15,292	260,076	117,648
118,006	-15,409	259,866	117,439
119,020	-15,492	259,731	117,294
120,035	-15,259	259,571	117,417
121,049	-15,470	259,373	117,131
122,064	-15,331	259,085	117,113
123,079	-15,362	258,983	117,029
124,093	-15,549	258,803	116,773
125,108	-15,466	258,761	116,817
126,122	-15,265	258,433	116,834
127,137	-15,265	258,354	116,789
128,151	-15,276	258,056	116,634
129,166	-15,342	257,904	116,497
130,181	-15,347	257,552	116,323
131,195	-15,220	257,348	116,332
132,210	-15,218	257,059	116,192
133,224	-15,613	256,960	115,792
134,239	-15,571	256,818	115,755
135,254	-15,429	256,562	115,753
136,268	-15,444	256,319	115,620
137,283	-15,311	256,214	115,677
138,297	-15,463	256,013	115,445
139,312	-15,434	255,872	115,396
140,327	-15,390	255,653	115,325
141,341	-15,368	255,353	115,198
142,356	-15,481	255,167	115,006
143,370	-15,690	254,841	114,668
144,385	-15,399	254,746	114,867
145,400	-15,541	254,671	114,700
146,414	-15,542	254,573	114,646
147,429	-15,404	254,318	114,640
148,443	-15,349	254,004	114,534
149,458	-15,290	253,840	114,501
150,473	-15,462	253,709	114,284
151,487	-15,578	253,634	114,140
152,502	-15,281	253,125	114,155
153,516	-15,397	253,157	114,060
154,531	-15,349	252,941	113,994
155,546	-15,631	252,828	113,692
156,560	-15,358	252,563	113,796
157,575	-15,437	252,259	113,581
158,589	-15,512	252,077	113,425
159,604	-15,413	251,942	113,439
160,619	-15,397	251,724	113,345
161,633	-15,294	251,647	113,387
162,648	-15,305	251,491	113,298
163,662	-15,453	251,296	113,073
164,677	-15,379	251,195	113,081
165,692	-15,406	250,921	112,924
166,706	-15,468	250,786	112,801
167,721	-15,278	250,626	112,880
168,735	-15,514	250,392	112,565
169,750	-15,263	250,261	112,708
170,764	-15,549	250,147	112,405
171,779	-15,504	250,007	112,370
172,794	-15,281	249,762	112,439
173,808	-15,410	249,658	112,273
174,823	-15,371	249,462	112,207
175,837	-15,107	249,124	112,268
176,852	-15,388	249,021	111,975
177,867	-15,656	248,924	111,696
178,881	-15,457	248,656	111,733
179,896	-15,260	248,550	111,840
180,910	-15,428	248,306	111,580
181,925	-15,530	248,116	111,399
182,940	-15,335	247,928	111,468
183,954	-15,458	247,660	111,234
184,969	-15,242	247,743	111,443
185,983	-15,299	247,582	111,313
186,998	-15,191	247,329	111,279
188,013	-15,484	247,155	110,946
189,027	-15,414	246,997	110,924
190,042	-15,396	246,636	110,767
191,056	-15,613	246,499	110,516
192,071	-15,595	246,292	110,427
193,086	-15,436	245,947	110,395
194,100	-15,586	245,926	110,251
195,115	-15,328	245,890	110,439
196,129	-15,420	245,543	110,197
197,144	-15,312	245,261	110,150
198,159	-15,525	245,320	109,990
199,173	-15,463	245,058	109,915
200,188	-15,721	244,754	109,555
201,202	-15,625	244,601	109,556
202,217	-15,315	244,389	109,707
203,232	-15,508	244,494	109,585
204,246	-15,787	244,092	109,166
205,261	-16,532	243,694	108,366
206,275	-15,647	243,907	109,179
207,290	-11,440	245,422	113,324
208,304	-4,460	247,654	120,153
209,319	-0,502	248,748	123,972
210,334	0,730	248,862	125,044
211,348	1,423	249,074	125,715
212,363	1,835	248,950	125,985
213,377	2,290	249,025	126,389
214,392	2,564	248,860	126,522
215,407	2,676	248,861	126,605
216,421	2,701	248,732	126,549
217,436	2,448	248,663	126,292
218,450	2,697	248,474	126,392
219,465	2,580	248,269	126,179
220,480	2,458	248,062	125,961
221,494	2,296	247,773	125,669
222,509	2,030	247,407	125,254
223,523	1,731	247,158	124,869
224,538	1,722	247,035	124,788
225,553	1,448	246,841	124,454
226,567	1,382	246,556	124,244
227,582	1,509	246,452	124,286
228,596	1,467	246,329	124,178
229,611	1,534	246,185	124,149
230,626	1,452	246,075	124,016
231,640	1,485	245,918	123,952
232,655	1,570	245,629	123,865
233,669	1,397	245,551	123,673
234,684	1,441	245,328	123,586
235,699	1,428	245,251	123,526
236,713	1,437	245,021	123,406
237,728	1,486	245,012	123,431
238,742	1,607	244,751	123,387
239,757	1,467	244,620	123,196
240,772	1,616	244,516	123,254
241,786	1,501	244,227	123,004
242,801	1,458	244,105	122,896
243,815	1,632	243,942	122,945
244,830	1,503	243,869	122,791
245,844	1,578	243,539	122,675
246,859	1,374	243,589	122,524
247,874	1,442	243,252	122,399
248,888	1,469	243,121	122,344
249,903	1,371	243,040	122,213
250,917	1,602	242,858	122,297
251,932	1,685	242,722	122,285
252,947	1,719	242,560	122,220
253,961	1,480	242,550	122,011
254,976	1,541	242,228	121,887
255,990	1,698	242,153	121,965
257,005	1,414	242,013	121,655
258,020	1,534	241,750	121,609
259,034	1,684	241,530	121,607
260,049	1,591	241,338	121,426
261,063	1,376	241,241	121,194
262,078	1,564	241,157	121,291
263,093	1,612	241,011	121,245
264,107	1,517	240,863	121,084
265,122	1,446	240,605	120,887
266,136	1,606	240,512	120,957
267,151	1,704	240,318	120,927
268,166	1,545	240,115	120,687
269,180	1,514	239,827	120,507
270,195	1,618	239,744	120,537
271,209	1,501	239,750	120,436
272,224	1,701	239,563	120,491
273,239	1,561	239,401	120,288
274,253	1,506	239,301	120,182
275,268	1,419	239,075	119,989
276,282	1,445	238,984	119,953
277,297	1,310	238,820	119,754
278,312	1,416	238,581	119,707
279,326	1,494	238,465	119,700
280,341	1,550	238,345	119,673
281,355	1,513	238,215	119,568
282,370	1,598	238,016	119,525
283,384	1,483	237,896	119,363
284,399	1,496	237,732	119,281
285,414	1,469	237,490	119,127
286,428	1,571	237,482	119,193
287,443	1,636	237,235	119,109
288,457	1,368	237,076	118,808
289,472	1,631	236,839	118,886
290,487	1,548	236,677	118,729
291,501	1,607	236,555	118,703
292,516	1,545	236,383	118,557
293,530	1,392	236,404	118,437
294,545	1,725	236,201	118,586
295,560	1,509	236,053	118,331
296,574	1,652	235,876	118,345
297,589	1,524	235,714	118,153
298,603	1,733	235,542	118,219
299,618	1,605	235,396	118,035
300,633	1,568	235,333	117,964
301,647	1,765	235,214	118,048
302,662	1,830	235,031	117,996
303,676	1,698	234,905	117,819
304,691	1,912	234,656	117,851
305,706	1,789	234,535	117,683
306,720	1,784	234,425	117,614
307,735	1,853	234,288	117,588
308,749	1,654	234,199	117,379
309,764	1,618	233,920	117,201
310,779	1,444	233,782	116,986
311,793	1,641	233,679	117,077
312,808	1,602	233,516	116,954
313,822	1,797	233,342	117,008
314,837	1,667	233,254	116,853
315,852	1,891	232,999	116,887
316,866	1,729	232,936	116,720
317,881	1,780	232,757	116,659
318,895	1,691	232,707	116,556
319,910	1,826	232,403	116,497
320,925	1,730	232,267	116,344
321,939	1,500	232,324	116,186
322,954	1,572	232,012	116,074
323,968	1,669	231,877	116,071
324,983	1,661	231,674	115,953
325,997	1,823	231,557	116,008
327,012	1,728	231,415	115,854
328,027	1,919	231,229	115,897
329,041	1,767	231,030	115,670
330,056	1,797	231,016	115,676
331,070	1,692	230,860	115,508
332,085	1,540	230,645	115,274
333,100	1,755	230,508	115,359
334,114	1,615	230,309	115,142
335,129	1,852	230,195	115,255
336,143	1,559	230,132	114,991
337,158	1,754	229,766	114,945
338,173	1,897	229,739	115,030
339,187	1,914	229,676	115,002
340,202	1,768	229,611	114,847
341,216	1,923	229,373	114,836
342,231	1,829	229,129	114,632
343,246	1,781	229,075	114,559
344,260	1,709	228,926	114,420
345,275	1,623	228,892	114,328
346,289	1,872	228,622	114,370
347,304	1,622	228,477	114,099
348,319	1,725	228,323	114,090
349,333	1,781	228,191	114,055
350,348	1,566	227,997	113,787
351,362	1,740	227,967	113,892
352,377	1,908	227,778	113,915
353,392	1,854	227,583	113,766
354,406	1,717	227,436	113,579
355,421	193,870	1312,554	1383,690
356,435	155,426	1444,657	1383,589
