DTS Sentinel unit serial number:	SN410029Multiplexer serial number:	ORYXHardware model number:	OX2-SRSoftware version number:	ORYX F/W v4,00 Oryx Data Collector v3.7.2.0data status	okinstallation	B5 Nyhavnadifferential loss correction	single-endedforward channel	channel 2reverse channel	N/Adate	2023/12/13time	04:57:13forward acquisition time	300,00reverse acquisition time	0,00gamma	499,1914k internal	0,3160k external	0,3160temperature offset calibration	1,0000default loss term (dB/km)	0,3820temperature slope calibration	1,0000multiplexer offset coefficient	1,0000multiplexer slope coefficient	1,0000fibre end	0,00T internal ref (°C)	13,90T ext. ref 1 (°C)	-2,51T ext. ref 2 (°C)	-2,82length (m)	temperature (°C)	Stokes	anti-Stokes-744,400	563,479	0,101	-0,180
-743,385	-127,333	-0,304	-0,032
-742,371	-89,516	0,131	0,028
-741,356	-103,792	-0,351	0,060
-740,342	-77,105	0,242	-0,062
-739,327	-114,016	-0,458	-0,065
-738,312	-200,000	0,000	0,027
-737,298	-105,840	-0,286	0,047
-736,283	792,028	0,004	-0,009
-735,269	-116,903	-0,365	-0,049
-734,254	-97,661	0,072	0,014
-733,239	-25,449	-0,421	-0,183
-732,225	63,025	0,093	0,069
-731,210	-57,121	-0,092	0,030
-730,196	-200,000	-0,021	-0,119
-729,181	456,770	-0,038	-0,062
-728,167	85,989	-0,078	-0,063
-727,152	605,251	-0,076	-0,140
-726,137	129,850	-0,119	-0,112
-725,123	800,000	-0,007	0,018
-724,108	-118,558	-0,160	0,021
-723,094	-52,999	-0,109	-0,037
-722,079	36,973	-0,082	0,053
-721,064	128,318	-0,052	0,049
-720,050	-200,000	-0,007	-0,085
-719,035	-50,711	-0,061	-0,021
-718,021	251,682	0,082	-0,103
-717,006	-36,371	-0,056	-0,022
-715,991	253,900	-0,139	-0,175
-714,977	270,514	-0,089	-0,115
-713,962	-53,066	0,087	-0,029
-712,948	605,378	-0,092	0,169
-711,933	-92,941	-0,044	0,009
-710,918	800,000	-0,008	0,018
-709,904	-140,157	-0,177	-0,013
-708,889	22,008	-0,115	-0,069
-707,875	-200,000	0,030	-0,102
-706,860	-60,379	0,049	-0,015
-705,845	-200,000	0,004	-0,204
-704,831	-98,067	0,024	0,004
-703,816	-60,476	-0,124	0,038
-702,802	-200,000	-0,020	-0,132
-701,787	-10,762	-0,074	-0,036
-700,772	215,643	0,047	0,056
-699,758	800,000	0,032	0,087
-698,743	-65,683	-0,098	-0,029
-697,729	102,116	0,144	0,124
-696,714	149,752	-0,086	0,085
-695,699	-66,299	-0,024	-0,007
-694,685	-2,851	-0,108	-0,055
-693,670	-200,000	-0,002	0,052
-692,656	-155,621	0,052	0,002
-691,641	-182,843	0,060	0,001
-690,627	257,929	-0,036	-0,046
-689,612	-45,423	0,073	0,027
-688,597	-5,130	-0,068	0,034
-687,583	184,361	-0,069	0,075
-686,568	-123,794	-0,038	-0,004
-685,554	-60,352	0,049	0,015
-684,539	122,922	-0,098	0,090
-683,524	321,065	-0,075	0,105
-682,510	800,000	0,046	0,139
-681,495	800,000	0,040	0,090
-680,481	800,000	-0,032	-0,069
-679,466	-200,000	0,010	-0,086
-678,451	178,687	-0,027	0,029
-677,437	-200,000	0,017	-0,071
-676,422	-200,000	-0,016	-0,062
-675,408	237,613	0,069	-0,085
-674,393	32,447	0,064	-0,040
-673,378	497,997	0,058	0,099
-672,364	800,000	0,022	-0,056
-671,349	52,300	-0,079	-0,055
-670,335	-94,051	-0,020	0,004
-669,320	182,588	-0,022	-0,023
-668,305	-200,000	0,006	0,126
-667,291	24,892	-0,050	-0,030
-666,276	-7,276	-0,094	-0,046
-665,262	-64,687	0,161	-0,048
-664,247	55,753	0,045	-0,032
-663,232	459,497	-0,088	-0,145
-662,218	696,091	0,041	-0,079
-661,203	-140,834	0,021	-0,002
-660,189	51,836	-0,076	0,053
-659,174	149,021	-0,071	-0,071
-658,159	532,169	-0,091	-0,159
-657,145	-103,638	-0,100	0,017
-656,130	-33,504	-0,037	0,015
-655,116	-9,190	-0,067	0,033
-654,101	747,379	-0,016	-0,032
-653,086	-151,176	-0,083	-0,005
-652,072	132,564	-0,063	0,060
-651,057	-164,822	-0,074	0,002
-650,043	-72,948	0,049	0,013
-649,028	-136,157	-0,111	-0,009
-648,014	-64,368	-0,048	0,014
-646,999	-95,236	-0,025	0,005
-645,984	-200,000	0,001	0,100
-644,970	-121,806	0,018	-0,002
-643,955	79,477	-0,019	-0,015
-642,941	-119,091	-0,060	-0,008
-641,926	73,035	0,040	0,031
-640,911	-112,002	-0,074	-0,011
-639,897	546,782	-0,021	-0,038
-638,882	272,228	-0,074	0,096
-637,868	800,000	-0,057	-0,121
-636,853	-200,000	-0,028	-0,170
-635,838	800,000	-0,049	-0,109
-634,824	183,123	-0,043	-0,047
-633,809	-168,331	-0,042	-0,001
-632,795	265,167	-0,057	0,072
-631,780	87,718	0,056	0,045
-630,765	-11,971	0,094	-0,045
-629,751	156,423	-0,020	-0,020
-628,736	192,117	-0,059	-0,066
-627,722	538,379	-0,031	0,055
-626,707	-188,351	0,039	0,000
-625,692	-23,116	0,161	-0,071
-624,678	-35,292	-0,049	-0,020
-623,663	127,338	-0,114	0,106
-622,649	-200,000	0,042	-0,137
-621,634	-127,263	-0,063	-0,007
-620,619	604,346	-0,063	-0,115
-619,605	-200,000	0,013	-0,092
-618,590	515,298	-0,068	-0,117
-617,576	800,000	-0,049	-0,134
-616,561	213,491	0,054	-0,062
-615,546	130,186	-0,186	-0,175
-614,532	-129,176	-0,129	-0,013
-613,517	-178,485	-0,021	0,000
-612,503	800,000	0,014	0,031
-611,488	81,841	-0,039	-0,031
-610,474	361,120	0,108	0,159
-609,459	18,598	-0,095	-0,055
-608,444	-200,000	0,019	-0,072
-607,430	-181,027	-0,134	-0,002
-606,415	-58,480	-0,064	0,020
-605,401	800,000	-0,020	-0,046
-604,386	274,694	0,091	0,118
-603,371	800,000	0,035	-0,098
-602,357	88,906	-0,045	0,036
-601,342	99,037	-0,085	-0,072
-600,328	-7,825	0,134	-0,066
-599,313	126,610	-0,113	-0,105
-598,298	-145,971	0,091	-0,006
-597,284	-13,761	0,029	-0,014
-596,269	-200,000	-0,003	-0,173
-595,255	750,602	-0,065	0,130
-594,240	800,000	-0,017	-0,050
-593,225	204,935	0,091	-0,104
-592,211	91,696	0,043	0,036
-591,196	800,000	-0,027	-0,059
-590,182	4,086	-0,066	0,035
-589,167	45,682	0,134	0,091
-588,152	-143,832	-0,113	0,008
-587,138	800,000	0,040	0,107
-586,123	287,835	-0,007	-0,009
-585,109	183,613	0,105	-0,113
-584,094	-200,000	-0,012	0,053
-583,079	800,000	0,026	0,074
-582,065	674,167	-0,065	0,125
-581,050	-29,259	0,067	-0,028
-580,036	146,573	-0,051	0,050
-579,021	517,895	-0,025	0,043
-578,006	-145,256	-0,007	0,000
-576,992	-79,490	0,128	-0,032
-575,977	-200,000	-0,002	-0,032
-574,963	800,000	0,053	0,132
-573,948	-6,438	-0,066	0,033
-572,934	262,163	0,038	-0,049
-571,919	180,165	-0,028	-0,030
-570,904	-200,000	0,020	0,130
-569,890	7,292	-0,042	-0,023
-568,875	-200,000	0,022	0,084
-567,861	194,386	0,048	-0,054
-566,846	-124,315	0,083	-0,009
-565,831	-4,160	0,090	-0,046
-564,817	-191,791	-0,112	0,001
-563,802	-108,957	-0,057	0,009
-562,788	-91,167	0,031	-0,006
-561,773	73,557	0,073	-0,056
-560,758	-105,728	0,075	-0,012
-559,744	-8,097	-0,015	0,007
-558,729	8,255	0,120	-0,066
-557,715	-200,000	0,006	-0,083
-556,700	800,000	0,021	0,055
-555,685	-68,018	-0,116	-0,033
-554,671	-200,000	-0,003	0,165
-553,656	-15,235	0,071	-0,033
-552,642	-28,540	0,071	0,030
-551,627	-62,701	0,043	0,013
-550,612	-101,634	-0,139	-0,024
-549,598	7,385	-0,090	-0,049
-548,583	-104,493	0,082	-0,014
-547,569	-200,000	0,024	0,153
-546,554	-158,861	-0,145	-0,006
-545,539	746,550	-0,020	-0,039
-544,525	202,287	0,076	0,086
-543,510	71,199	-0,112	0,084
-542,496	-200,000	-0,050	-0,163
-541,481	-120,927	0,019	-0,002
-540,466	-39,162	0,071	0,027
-539,452	-200,000	-0,001	-0,070
-538,437	800,000	-0,051	-0,139
-537,423	-2,529	0,183	0,093
-536,408	-105,649	-0,192	0,031
-535,393	75,353	0,103	-0,079
-534,379	-200,000	-0,023	-0,097
-533,364	-200,000	-0,009	-0,146
-532,350	-75,252	-0,129	0,033
-531,335	-200,000	0,026	0,110
-530,321	449,464	0,073	-0,118
-529,306	241,956	-0,054	0,066
-528,291	-200,000	0,008	-0,077
-527,277	211,015	-0,092	-0,106
-526,262	275,083	-0,065	-0,085
-525,248	256,573	0,071	0,089
-524,233	800,000	0,031	0,096
-523,218	81,997	-0,041	-0,033
-522,204	581,356	-0,057	-0,103
-521,189	84,702	-0,157	-0,125
-520,175	-200,000	0,026	-0,150
-519,160	-95,973	-0,053	-0,010
-518,145	-200,000	-0,007	-0,036
-517,131	-200,000	-0,029	0,097
-516,116	97,677	0,148	0,124
-515,102	800,000	-0,048	0,120
-514,087	-35,802	-0,179	-0,071
-513,072	95,174	-0,085	-0,071
-512,058	800,000	0,012	0,026
-511,043	-51,107	-0,059	-0,020
-510,029	-35,704	0,203	0,080
-509,014	78,083	-0,073	0,057
-507,999	72,483	0,107	-0,081
-506,985	-200,000	-0,004	-0,042
-505,970	216,159	-0,029	-0,034
-504,956	371,023	0,053	0,079
-503,941	-85,463	0,072	-0,016
-502,926	800,000	0,013	0,037
-501,912	-200,000	-0,007	0,058
-500,897	54,953	0,029	0,021
-499,883	404,080	-0,014	0,021
-498,868	307,817	0,026	0,035
-497,853	50,260	-0,078	0,054
-496,839	6,481	0,052	0,028
-495,824	548,329	0,031	0,054
-494,810	-135,816	0,054	-0,005
-493,795	-174,410	0,096	0,002
-492,781	-200,000	-0,040	0,142
-491,766	800,000	0,038	-0,110
-490,751	502,699	0,041	0,070
-489,737	110,507	-0,060	-0,053
-488,722	-200,000	0,051	0,000
-487,708	-153,775	-0,098	-0,005
-486,693	73,208	0,057	-0,044
-485,678	-200,000	-0,022	-0,089
-484,664	405,974	-0,012	0,019
-483,649	426,573	0,049	-0,077
-482,635	-56,250	0,055	-0,018
-481,620	456,698	0,107	0,174
-480,605	-200,000	-0,007	-0,029
-479,591	-21,532	0,092	-0,041
-478,576	-200,000	-0,010	-0,035
-477,562	122,990	-0,030	-0,028
-476,547	200,197	-0,009	-0,010
-475,532	-200,000	0,011	0,094
-474,518	140,336	0,135	0,130
-473,503	749,733	-0,017	-0,034
-472,489	800,000	0,019	0,048
-471,474	282,776	-0,050	0,065
-470,459	35,412	-0,108	-0,069
-469,445	-78,882	-0,093	0,023
-468,430	-108,403	-0,098	-0,015
-467,416	45,226	0,094	-0,063
-466,401	-200,000	0,004	0,058
-465,386	13,579	0,123	-0,069
-464,372	361,900	-0,035	-0,051
-463,357	-57,474	0,012	-0,004
-462,343	800,000	0,023	-0,069
-461,328	-46,762	-0,135	-0,048
-460,313	71,957	0,102	-0,077
-459,299	-200,000	-0,027	0,096
-458,284	-200,000	0,008	0,163
-457,270	87,698	0,054	-0,043
-456,255	-35,525	0,025	-0,010
-455,241	-6,081	-0,151	-0,075
-454,226	800,000	-0,055	-0,147
-453,211	206,130	0,047	-0,054
-452,197	-200,000	0,003	0,061
-451,182	-23,207	-0,044	-0,019
-450,168	31,494	0,083	0,052
-449,153	-200,000	-0,003	0,059
-448,138	-141,503	-0,056	-0,004
-447,124	-82,295	-0,101	0,024
-446,109	339,570	0,060	-0,086
-445,095	282,225	0,053	-0,070
-444,080	-200,000	0,002	0,029
-443,065	-76,914	-0,050	-0,013
-442,051	-8,370	0,079	-0,039
-441,036	61,791	-0,113	-0,082
-440,022	319,035	0,146	-0,202
-439,007	147,305	-0,070	-0,068
-437,992	99,811	0,041	-0,034
-436,978	800,000	-0,008	-0,022
-435,963	255,468	0,106	-0,132
-434,949	-39,053	-0,057	-0,022
-433,934	501,264	0,027	0,045
-432,919	396,818	-0,022	0,034
-431,905	-200,000	0,001	0,086
-430,890	-125,487	0,120	0,013
-429,876	472,167	-0,060	0,098
-428,861	-125,089	0,118	-0,013
-427,846	-200,000	-0,008	-0,046
-426,832	398,100	0,114	0,173
-425,817	800,000	-0,016	-0,038
-424,803	-114,957	-0,137	-0,019
-423,788	-12,934	0,091	0,043
-422,773	-26,613	-0,139	0,059
-421,759	800,000	0,056	0,123
-420,744	-200,000	0,023	0,111
-419,730	-200,000	0,006	0,098
-418,715	252,461	-0,052	-0,065
-417,701	800,000	0,027	0,070
-416,686	-200,000	0,019	-0,139
-415,671	-200,000	0,008	0,039
-414,657	13,925	0,175	0,099
-413,642	-54,752	-0,046	-0,015
-412,628	63,208	-0,096	0,070
-411,613	340,386	-0,044	-0,062
-410,598	229,764	-0,030	-0,036
-409,584	-99,006	0,105	-0,019
-408,569	141,316	-0,068	-0,066
-407,555	37,181	-0,067	-0,043
-406,540	-106,003	0,043	-0,007
-405,525	-73,617	-0,089	0,023
-404,511	-200,000	-0,013	-0,064
-403,496	-200,000	-0,058	0,000
-402,482	213,996	0,068	-0,078
-401,467	800,000	-0,028	0,071
-400,452	800,000	0,016	-0,036
-399,438	654,652	-0,064	0,120
-398,423	278,609	0,045	0,058
-397,409	523,389	0,041	-0,070
-396,394	36,168	0,096	-0,062
-395,379	104,410	-0,058	-0,050
-394,365	-200,000	-0,013	0,045
-393,350	800,000	0,077	-0,227
-392,336	181,156	-0,025	0,026
-391,321	65,879	0,072	-0,053
-390,306	7,903	0,049	-0,026
-389,292	800,000	-0,039	0,109
-388,277	-57,898	0,031	-0,010
-387,263	11,292	0,010	0,006
-386,248	-200,000	-0,026	0,113
-385,233	800,000	0,035	-0,097
-384,219	-29,535	0,027	-0,011
-383,204	636,098	0,047	-0,087
-382,190	-200,000	0,000	-0,150
-381,175	695,239	-0,062	-0,120
-380,160	-55,186	-0,071	-0,023
-379,146	231,909	-0,040	0,048
-378,131	92,824	0,077	0,063
-377,117	58,502	0,046	-0,033
-376,102	2,709	-0,119	0,063
-375,088	557,847	0,034	0,061
-374,073	369,452	-0,060	0,089
-373,058	-200,000	-0,019	0,070
-372,044	70,482	0,133	-0,099
-371,029	-200,000	0,004	0,064
-370,015	225,964	0,027	0,032
-369,000	104,360	0,090	0,077
-367,985	82,102	-0,037	-0,029
-366,971	-35,955	-0,085	0,033
-365,956	-200,000	0,041	0,159
-364,942	-103,604	-0,066	0,011
-363,927	800,000	0,031	0,088
-362,912	800,000	0,016	-0,049
-361,898	-200,000	0,023	-0,105
-360,883	15,525	-0,091	-0,052
-359,869	-26,509	0,103	0,044
-358,854	-71,938	0,140	0,037
-357,839	438,590	-0,066	0,105
-356,825	-86,097	0,072	0,016
-355,810	27,654	0,128	0,078
-354,796	-53,008	0,058	0,019
-353,781	56,942	-0,085	-0,060
-352,766	-200,000	0,026	0,127
-351,752	-130,339	-0,104	0,010
-350,737	431,164	0,039	0,062
-349,723	-200,000	0,001	-0,044
-348,708	-133,921	-0,062	0,006
-347,693	-114,927	-0,046	0,006
-346,679	52,439	0,046	0,032
-345,664	586,098	-0,033	-0,059
-344,650	451,892	-0,050	-0,080
-343,635	-189,213	0,010	0,000
-342,620	-200,000	-0,000	-0,014
-341,606	-75,706	-0,072	-0,018
-340,591	243,658	0,021	-0,025
-339,577	-88,691	-0,032	0,007
-338,562	10,151	0,004	0,002
-337,548	-200,000	-0,003	0,028
-336,533	800,000	-0,016	0,039
-335,518	800,000	-0,027	0,082
-334,504	109,087	-0,138	0,120
-333,489	362,152	-0,110	0,161
-332,475	-30,531	-0,087	0,036
-331,460	800,000	-0,015	-0,036
-330,445	106,976	-0,143	0,123
-329,431	-89,133	0,198	0,042
-328,416	54,685	0,085	0,059
-327,402	524,036	-0,007	-0,012
-326,387	-94,540	0,115	-0,022
-325,372	205,119	-0,059	-0,067
-324,358	-200,000	-0,010	0,051
-323,343	-98,531	0,083	-0,015
-322,329	564,058	0,046	0,082
-321,314	215,205	-0,038	0,044
-320,299	257,654	0,138	-0,173
-319,285	-200,000	-0,030	0,175
-318,270	-200,000	-0,008	-0,086
-317,256	-37,458	0,080	0,031
-316,241	125,044	-0,017	0,015
-315,226	-200,000	0,007	0,093
-314,212	238,620	0,140	0,169
-313,197	-200,000	-0,003	-0,016
-312,183	-200,000	0,122	0,000
-311,168	-49,044	-0,160	-0,055
-310,153	375,298	-0,040	-0,059
-309,139	716,065	-0,029	0,056
-308,124	-200,000	0,008	-0,048
-307,110	800,000	0,036	0,100
-306,095	-88,503	-0,166	-0,036
-305,080	800,000	0,027	-0,055
-304,066	-46,864	-0,034	0,012
-303,051	319,759	-0,026	0,036
-302,037	-200,000	-0,036	-0,147
-301,022	-53,994	0,002	-0,001
-300,008	208,141	0,051	-0,058
-298,993	424,403	-0,007	0,011
-297,978	-28,559	-0,026	-0,011
-296,964	-200,000	-0,007	-0,060
-295,949	-53,523	-0,085	-0,028
-294,935	800,000	-0,056	-0,152
-293,920	-92,654	-0,043	0,009
-292,905	-131,804	0,120	0,011
-291,891	257,490	0,064	0,080
-290,876	253,728	-0,106	0,131
-289,862	-200,000	-0,006	0,175
-288,847	-200,000	0,002	-0,042
-287,832	-74,028	0,087	-0,023
-286,818	145,386	0,044	0,043
-285,803	-200,000	0,016	0,108
-284,789	26,431	-0,094	0,057
-283,774	77,085	-0,075	0,057
-282,759	24,250	0,023	0,014
-281,745	-104,734	0,089	0,015
-280,730	778,419	-0,041	-0,082
-279,716	-122,026	0,134	-0,016
-278,701	245,394	-0,108	-0,132
-277,686	-69,275	-0,157	0,043
-276,672	-49,266	0,136	-0,047
-275,657	800,000	0,017	0,040
-274,643	70,176	-0,050	0,037
-273,628	-121,699	-0,087	-0,010
-272,613	-200,000	0,015	0,076
-271,599	-200,000	0,033	-0,137
-270,584	117,869	0,077	-0,069
-269,570	268,395	-0,057	-0,073
-268,555	373,670	0,037	-0,054
-267,540	225,088	-0,106	-0,125
-266,526	-88,684	0,232	0,049
-265,511	-171,928	-0,121	-0,003
-264,497	-200,000	-0,012	0,046
-263,482	-25,580	0,088	-0,037
-262,467	-5,110	0,169	0,084
-261,453	55,120	-0,068	0,048
-260,438	441,194	-0,034	-0,055
-259,424	-37,743	-0,079	-0,030
-258,409	800,000	-0,046	0,106
-257,395	800,000	0,059	-0,123
-256,380	337,439	0,051	0,072
-255,365	34,238	0,028	-0,017
-254,351	20,689	0,054	0,032
-253,336	116,021	0,073	-0,064
-252,322	249,004	-0,006	-0,008
-251,307	-68,259	0,077	0,021
-250,292	-137,076	-0,190	0,015
-249,278	39,482	-0,094	0,061
-248,263	-116,536	0,118	-0,016
-247,249	40,853	0,053	0,035
-246,234	276,052	0,052	-0,067
-245,219	310,813	0,009	-0,012
-244,205	-11,363	-0,088	-0,042
-243,190	-80,887	0,131	0,031
-242,176	163,838	0,076	0,078
-241,161	-200,000	-0,030	0,140
-240,146	384,252	-0,070	0,104
-239,132	115,948	-0,022	0,019
-238,117	-200,000	0,008	-0,136
-237,103	-63,186	0,044	-0,013
-236,088	145,372	0,119	-0,115
-235,073	82,089	-0,054	0,042
-234,059	800,000	0,040	0,113
-233,044	-200,000	0,018	-0,076
-232,030	-200,000	0,017	0,127
-231,015	19,202	-0,211	0,122
-230,000	-200,000	0,006	-0,076
-228,986	-79,110	-0,023	-0,006
-227,971	-105,379	-0,054	0,009
-226,957	344,805	0,057	0,081
-225,942	-122,334	0,114	-0,013
-224,927	-100,833	0,075	-0,013
-223,913	-19,611	-0,100	0,045
-222,898	63,282	-0,151	0,109
-221,884	800,000	0,060	-0,148
-220,869	800,000	-0,027	0,065
-219,855	-200,000	0,011	0,067
-218,840	-92,571	0,098	-0,020
-217,825	34,958	-0,020	0,013
-216,811	490,173	-0,013	0,022
-215,796	-16,137	0,022	0,010
-214,782	-24,839	0,025	0,011
-213,767	-107,297	-0,116	0,018
-212,752	231,181	0,105	-0,124
-211,738	-200,000	-0,027	-0,129
-210,723	-200,000	0,013	0,108
-209,709	134,565	-0,065	0,061
-208,694	9,263	0,131	0,071
-207,679	100,616	0,098	-0,082
-206,665	-200,000	-0,052	-0,236
-205,650	90,048	0,091	0,073
-204,636	-42,895	-0,015	0,005
-203,621	-200,000	-0,006	0,028
-202,606	-200,000	-0,046	-0,203
-201,592	800,000	0,011	-0,030
-200,577	195,076	0,060	-0,066
-199,563	800,000	-0,021	0,055
-198,548	109,371	-0,071	-0,062
-197,533	800,000	0,018	0,043
-196,519	-200,000	0,017	-0,096
-195,504	-124,595	-0,073	-0,008
-194,490	-128,464	-0,127	0,013
-193,475	91,971	0,079	-0,064
-192,460	800,000	-0,028	-0,069
-191,446	150,429	0,109	0,106
-190,431	-106,903	-0,028	0,004
-189,417	-200,000	0,009	0,069
-188,402	-200,000	-0,004	-0,233
-187,387	9,098	-0,179	0,097
-186,373	61,796	0,132	0,095
-185,358	-200,000	-0,050	-0,197
-184,344	800,000	0,056	0,121
-183,329	703,854	0,022	0,041
-182,315	137,215	0,092	0,087
-181,300	-200,000	0,049	0,217
-180,285	201,447	0,015	0,016
-179,271	-200,000	0,026	0,121
-178,256	-200,000	-0,001	-0,103
-177,242	702,233	-0,048	-0,091
-176,227	-166,986	0,059	-0,002
-175,212	800,000	-0,046	0,098
-174,198	-106,516	-0,083	-0,013
-173,183	-200,000	0,001	-0,016
-172,169	34,058	0,038	0,024
-171,154	92,394	-0,112	-0,091
-170,139	800,000	0,054	0,126
-169,125	-22,023	0,115	0,050
-168,110	495,069	0,007	0,011
-167,096	-200,000	-0,016	-0,066
-166,081	32,066	0,075	-0,047
-165,066	-117,912	0,085	-0,011
-164,052	-74,519	-0,022	-0,006
-163,037	-184,501	0,055	-0,001
-162,023	-52,934	-0,125	0,041
-161,008	-83,670	-0,086	0,020
-159,993	244,492	0,091	0,111
-158,979	26,612	0,034	0,020
-157,964	-164,662	-0,020	-0,001
-156,950	-200,000	0,022	0,080
-155,935	-106,798	-0,109	0,017
-154,920	-200,000	0,000	-0,003
-153,906	299,870	0,092	0,122
-152,891	-62,800	-0,025	0,007
-151,877	-55,690	0,020	0,007
-150,862	19,624	0,026	-0,015
-149,847	-49,148	-0,078	-0,027
-148,833	800,000	0,009	-0,024
-147,818	-48,674	0,203	-0,070
-146,804	290,721	0,089	0,117
-145,789	14,531	0,160	-0,090
-144,775	135,453	-0,051	0,048
-143,760	147,734	-0,048	-0,046
-142,745	-13,369	-0,082	0,038
-141,731	30,714	0,066	0,041
-140,716	-42,980	0,049	0,018
-139,702	-72,098	-0,067	0,018
-138,687	84,529	-0,031	0,025
-137,672	800,000	-0,006	0,015
-136,658	-96,573	-0,047	0,009
-135,643	-0,607	-0,072	-0,037
-134,629	413,199	0,063	-0,096
-133,614	26,551	-0,065	0,039
-132,599	57,056	0,054	-0,038
-131,585	260,697	-0,076	-0,094
-130,570	-200,000	0,012	-0,120
-129,556	-145,831	-0,154	-0,010
-128,541	229,395	-0,027	0,032
-127,526	168,669	0,044	-0,045
-126,512	62,943	0,118	0,085
-125,497	-12,977	-0,085	0,040
-124,483	166,138	0,088	0,089
-123,468	800,000	0,041	-0,092
-122,453	-1,862	-0,067	-0,034
-121,439	24,566	-0,069	0,041
-120,424	-200,000	0,007	0,037
-119,410	119,904	-0,029	0,026
-118,395	-63,982	-0,030	-0,009
-117,380	126,784	-0,109	0,099
-116,366	-200,000	-0,001	-0,099
-115,351	-74,467	-0,048	0,012
-114,337	464,155	-0,021	0,034
-113,322	200,471	-0,115	0,128
-112,307	176,684	0,045	-0,047
-111,293	-200,000	-0,030	0,122
-110,278	136,695	-0,069	0,065
-109,264	344,125	-0,032	0,046
-108,249	124,370	-0,116	-0,105
-107,234	115,277	-0,040	0,035
-106,220	-124,170	0,130	0,014
-105,205	-192,506	0,046	-0,000
-104,191	-106,746	-0,021	0,003
-103,176	26,116	0,110	0,066
-102,162	415,676	-0,018	-0,028
-101,147	-18,117	-0,093	-0,042
-100,132	235,102	-0,034	-0,041
-99,118	74,925	-0,007	-0,005
-98,103	-200,000	-0,015	-0,094
-97,089	610,375	0,028	-0,050
-96,074	26,337	0,141	0,084
-95,059	190,640	-0,058	0,063
-94,045	-200,000	0,016	0,078
-93,030	-77,793	-0,167	-0,041
-92,016	583,197	-0,060	-0,106
-91,001	-200,000	-0,029	-0,127
-89,986	217,801	0,037	-0,042
-88,972	7,384	0,065	0,035
-87,957	-200,000	0,009	0,099
-86,943	37,779	0,099	0,063
-85,928	800,000	-0,025	-0,075
-84,913	-200,000	0,016	-0,072
-83,899	800,000	0,034	0,086
-82,884	-200,000	0,005	0,102
-81,870	-200,000	-0,001	0,051
-80,855	-11,584	-0,138	0,065
-79,840	-200,000	0,017	0,111
-78,826	102,922	0,126	-0,106
-77,811	700,741	-0,040	-0,076
-76,797	-49,903	-0,023	-0,008
-75,782	-200,000	-0,027	-0,115
-74,767	374,391	-0,030	0,044
-73,753	64,196	0,032	-0,023
-72,738	-140,085	0,090	-0,007
-71,724	800,000	-0,018	0,046
-70,709	343,271	0,038	0,053
-69,694	104,252	0,057	-0,048
-68,680	-90,510	-0,051	-0,010
-67,665	468,605	-0,048	-0,078
-66,651	-200,000	0,001	0,011
-65,636	21,174	0,121	-0,070
-64,622	285,434	-0,021	0,027
-63,607	-200,000	0,001	0,063
-62,592	-200,000	-0,005	-0,127
-61,578	800,000	-0,045	-0,132
-60,563	-83,945	-0,134	0,030
-59,549	-200,000	-0,011	0,114
-58,534	18,299	-2,071	-1,183
-57,519	-200,000	-0,059	-0,860
-56,505	-200,000	-1,263	-5,009
-55,490	62,841	0,816	0,585
-54,476	800,000	5,330	12,039
-53,461	-200,000	18,435	312,517
-52,446	800,000	740,231	2323,197
-51,432	558,127	1656,395	2876,618
-50,417	110,943	1640,637	1416,039
-49,403	75,223	1290,562	974,880
-48,388	30,491	1031,145	630,664
-47,373	20,017	993,575	572,996
-46,359	17,601	981,145	557,856
-45,344	14,218	977,515	544,649
-44,330	14,649	975,843	545,113
-43,315	14,001	973,973	541,920
-42,300	13,903	972,977	541,023
-41,286	13,915	971,887	540,437
-40,271	13,977	970,956	540,099
-39,257	13,935	970,102	539,465
-38,242	13,943	969,215	538,976
-37,227	13,978	968,386	538,611
-36,213	13,924	967,509	537,925
-35,198	13,840	966,680	537,167
-34,184	13,929	965,917	537,014
-33,169	13,865	965,042	536,298
-32,154	13,941	963,997	535,941
-31,140	13,925	963,189	535,419
-30,125	13,946	962,318	534,980
-29,111	13,874	961,607	534,333
-28,096	13,963	960,886	534,199
-27,082	13,925	960,229	533,688
-26,067	13,983	959,284	533,329
-25,052	13,923	958,675	532,775
-24,038	13,935	958,016	532,427
-23,023	13,937	957,304	532,017
-22,009	13,958	956,688	531,721
-20,994	14,006	956,008	531,476
-19,979	13,953	955,521	531,013
-18,965	13,936	954,793	530,535
-17,950	13,900	954,433	530,196
-16,936	13,864	953,655	529,629
-15,921	13,903	952,863	529,295
-14,906	13,840	952,145	528,673
-13,892	13,846	951,447	528,282
-12,877	13,831	950,913	527,915
-11,863	13,770	950,301	527,362
-10,848	13,860	949,665	527,275
-9,833	13,887	949,375	527,179
-8,819	13,900	948,492	526,711
-7,804	13,828	947,864	526,110
-6,790	13,834	947,342	525,818
-5,775	13,872	946,885	525,665
-4,760	13,871	946,159	525,237
-3,746	13,832	945,468	524,711
-2,731	13,729	944,822	524,002
-1,717	13,629	944,236	523,338
-0,702	13,671	943,578	523,089
0,313	13,489	942,843	522,891
1,327	16,630	940,450	531,456
2,342	25,534	795,600	473,249
3,356	21,902	460,415	268,270
4,371	-4,875	317,501	156,239
5,386	-8,815	299,330	143,255
6,400	-10,616	293,145	138,477
7,415	-10,996	290,548	136,861
8,429	-11,203	289,028	135,927
9,444	-11,250	288,137	135,450
10,459	-11,205	287,474	135,170
11,473	-11,557	286,849	134,519
12,488	-11,441	286,478	134,447
13,502	-11,287	285,752	134,245
14,517	-11,217	285,484	134,176
15,531	-11,199	284,865	133,889
16,546	-11,143	284,530	133,775
17,561	-11,168	284,129	133,551
18,575	-11,122	283,848	133,451
19,590	-11,339	283,396	133,016
20,604	-11,243	283,214	133,012
21,619	-11,199	282,749	132,824
22,634	-11,230	282,542	132,685
23,648	-11,323	282,171	132,409
24,663	-11,244	281,871	132,333
25,677	-11,300	281,590	132,135
26,692	-11,287	281,308	132,004
27,707	-11,325	281,154	131,883
28,721	-11,365	280,746	131,641
29,736	-11,402	280,475	131,467
30,750	-11,213	280,269	131,540
31,765	-11,228	279,882	131,332
32,780	-11,396	279,801	131,122
33,794	-11,368	279,555	131,022
34,809	-11,217	279,285	131,027
35,823	-11,204	278,925	130,859
36,838	-11,343	278,758	130,638
37,853	-11,295	278,371	130,490
38,867	-11,309	278,279	130,422
39,882	-11,353	277,893	130,188
40,896	-11,231	277,751	130,225
41,911	-11,466	277,477	129,863
42,926	-11,299	277,172	129,866
43,940	-11,512	276,994	129,570
44,955	-11,395	276,621	129,494
45,969	-11,342	276,454	129,454
46,984	-11,578	276,293	129,145
47,999	-11,897	276,020	128,705
49,013	-11,709	275,559	128,656
50,028	-11,913	275,392	128,375
51,042	-12,067	275,253	128,154
52,057	-11,894	274,668	128,033
53,071	-12,170	274,770	127,810
54,086	-11,810	274,491	128,006
55,101	-11,852	274,348	127,889
56,115	-11,606	274,264	128,068
57,130	-11,114	274,013	128,398
58,144	-11,155	273,799	128,248
59,159	-11,177	273,588	128,117
60,174	-10,980	273,276	128,143
61,188	-11,110	273,210	127,980
62,203	-11,322	273,153	127,745
63,217	-11,098	272,723	127,741
64,232	-11,435	272,545	127,333
65,247	-11,012	272,183	127,544
66,261	-11,223	271,953	127,230
67,276	-11,219	271,620	127,067
68,290	-11,599	271,487	126,642
69,305	-11,438	271,136	126,615
70,320	-11,524	271,128	126,521
71,334	-11,250	270,797	126,607
72,349	-11,275	270,673	126,516
73,363	-11,145	270,570	126,575
74,378	-11,149	270,282	126,426
75,393	-11,256	269,988	126,179
76,407	-11,317	269,896	126,068
77,422	-11,087	269,350	126,013
78,436	-11,147	269,297	125,922
79,451	-11,108	269,191	125,897
80,466	-11,380	268,891	125,497
81,480	-11,308	268,641	125,434
82,495	-11,330	268,465	125,321
83,509	-11,355	268,231	125,178
84,524	-11,495	268,022	124,942
85,539	-11,474	267,717	124,807
86,553	-11,588	267,521	124,601
87,568	-11,155	267,306	124,883
88,582	-11,398	267,239	124,620
89,597	-11,361	266,925	124,496
90,611	-11,153	266,658	124,549
91,626	-11,069	266,617	124,594
92,641	-11,196	266,404	124,369
93,655	-11,294	266,143	124,148
94,670	-11,312	265,923	124,017
95,684	-11,245	265,794	124,007
96,699	-11,157	265,602	123,986
97,714	-11,332	265,409	123,727
98,728	-11,330	265,220	123,630
99,743	-11,388	264,974	123,451
100,757	-11,615	264,660	123,091
101,772	-11,398	264,471	123,187
102,787	-11,374	264,349	123,141
103,801	-11,145	264,103	123,220
104,816	-11,244	263,980	123,062
105,830	-11,218	263,897	123,037
106,845	-11,258	263,656	122,877
107,860	-11,155	263,407	122,843
108,874	-11,327	263,196	122,580
109,889	-11,194	263,036	122,612
110,903	-11,347	262,843	122,376
111,918	-11,296	262,569	122,282
112,933	-11,376	262,418	122,130
113,947	-11,307	262,213	122,085
114,962	-11,215	262,029	122,070
115,976	-11,129	261,865	122,060
116,991	-11,270	261,582	121,792
118,006	-11,347	261,511	121,679
119,020	-11,298	261,327	121,626
120,035	-11,161	261,051	121,607
121,049	-11,316	261,009	121,441
122,064	-11,065	260,771	121,541
123,079	-11,266	260,511	121,232
124,093	-11,309	260,453	121,155
125,108	-11,265	259,953	120,951
126,122	-11,538	259,861	120,657
127,137	-11,709	259,560	120,356
128,151	-11,490	259,467	120,495
129,166	-11,394	259,289	120,486
130,181	-11,375	259,019	120,366
131,195	-11,320	258,732	120,271
132,210	-11,366	258,738	120,222
133,224	-11,252	258,546	120,222
134,239	-11,267	258,483	120,168
135,254	-11,150	258,189	120,124
136,268	-11,296	257,845	119,826
137,283	-11,400	257,754	119,682
138,297	-11,740	257,493	119,254
139,312	-11,523	257,132	119,265
140,327	-11,480	257,144	119,297
141,341	-11,188	256,997	119,472
142,356	-11,108	256,721	119,402
143,370	-11,108	256,710	119,387
144,385	-11,036	256,363	119,278
145,400	-11,241	256,279	119,049
146,414	-11,033	256,054	119,115
147,429	-10,977	255,851	119,058
148,443	-10,959	255,842	119,059
149,458	-10,969	255,586	118,920
150,473	-11,153	255,550	118,734
151,487	-10,996	255,251	118,720
152,502	-11,186	254,968	118,414
153,516	-11,029	254,853	118,485
154,531	-11,098	254,636	118,314
155,546	-11,039	254,349	118,222
156,560	-10,967	254,190	118,199
157,575	-11,101	254,061	118,013
158,589	-11,206	253,851	117,816
159,604	-11,046	253,529	117,792
160,619	-10,983	253,486	117,816
161,633	-11,222	253,243	117,488
162,648	-10,957	253,111	117,642
163,662	-11,079	253,000	117,477
164,677	-11,026	252,809	117,422
165,692	-11,124	252,697	117,276
166,706	-11,118	252,509	117,183
167,721	-11,080	252,232	117,077
168,735	-11,084	252,134	117,018
169,750	-10,880	251,941	117,091
170,764	-10,951	251,902	117,002
171,779	-10,871	251,688	116,961
172,794	-10,731	251,410	116,939
173,808	-10,996	251,302	116,654
174,823	-11,427	250,981	116,130
175,837	-11,472	250,772	115,984
176,852	-11,222	250,845	116,220
177,867	-10,884	250,626	116,393
178,881	-11,003	250,567	116,255
179,896	-10,974	250,395	116,189
180,910	-10,872	250,196	116,173
181,925	-10,944	249,773	115,905
182,940	-10,985	249,661	115,809
183,954	-10,947	249,537	115,773
184,969	-10,969	249,572	115,760
185,983	-10,891	249,217	115,650
186,998	-11,068	249,233	115,499
188,013	-11,039	248,973	115,392
189,027	-10,811	248,612	115,406
190,042	-11,023	248,560	115,194
191,056	-10,974	248,313	115,110
192,071	-11,107	248,256	114,962
193,086	-11,138	247,970	114,793
194,100	-10,862	247,720	114,897
195,115	-10,841	247,761	114,925
196,129	-10,996	247,572	114,697
197,144	-11,001	247,316	114,564
198,159	-11,193	247,182	114,332
199,173	-11,110	246,925	114,272
200,188	-11,045	246,837	114,275
201,202	-11,089	246,415	114,033
202,217	-11,551	246,208	113,545
203,232	-11,546	246,075	113,477
204,246	-11,306	245,995	113,629
205,261	-10,776	245,838	113,984
206,275	-11,931	245,544	112,884
207,290	-8,111	247,100	116,761
208,304	0,023	249,654	124,762
209,319	4,270	250,824	128,891
210,334	4,693	250,776	129,208
211,348	4,865	250,646	129,274
212,363	5,155	250,668	129,516
213,377	5,247	250,420	129,453
214,392	5,005	250,317	129,186
215,407	5,038	250,021	129,049
216,421	4,783	249,841	128,733
217,436	5,113	249,805	128,977
218,450	5,086	249,719	128,898
219,465	4,947	249,247	128,528
220,480	4,828	249,066	128,325
221,494	4,762	248,950	128,199
222,509	4,632	248,961	128,086
223,523	4,849	248,739	128,140
224,538	4,505	248,388	127,663
225,553	4,529	248,176	127,563
226,567	4,651	248,154	127,640
227,582	4,584	248,011	127,500
228,596	4,609	247,809	127,405
229,611	4,441	247,530	127,113
230,626	4,264	247,378	126,877
231,640	4,406	247,198	126,891
232,655	4,597	247,046	126,958
233,669	4,292	246,896	126,619
234,684	4,192	246,675	126,412
235,699	4,592	246,707	126,746
236,713	4,835	246,595	126,877
237,728	4,428	246,355	126,409
238,742	4,246	246,073	126,104
239,757	4,219	245,870	125,966
240,772	4,312	245,775	125,982
241,786	4,269	245,682	125,888
242,801	4,207	245,478	125,722
243,815	4,386	245,338	125,785
244,830	4,646	245,231	125,930
245,844	4,305	245,085	125,567
246,859	4,531	244,920	125,655
247,874	4,333	244,705	125,373
248,888	4,473	244,477	125,358
249,903	4,545	244,410	125,371
250,917	4,494	244,371	125,299
251,932	4,733	244,236	125,412
252,947	4,627	243,818	125,100
253,961	4,383	243,702	124,832
254,976	4,339	243,435	124,649
255,990	4,857	243,447	125,062
257,005	4,402	243,302	124,609
258,020	4,427	242,943	124,435
259,034	4,299	242,943	124,320
260,049	4,490	242,973	124,479
261,063	4,362	242,505	124,125
262,078	4,301	242,363	123,992
263,093	4,604	242,255	124,169
264,107	4,531	242,124	124,032
265,122	4,398	242,099	123,901
266,136	4,553	241,872	123,899
267,151	4,553	241,794	123,847
268,166	4,355	241,474	123,514
269,180	4,066	241,424	123,246
270,195	4,744	241,363	123,747
271,209	4,983	241,277	123,883
272,224	4,459	241,069	123,346
273,239	4,126	240,751	122,907
274,253	4,186	240,586	122,859
275,268	4,470	240,421	122,990
276,282	4,324	240,400	122,852
277,297	4,216	240,152	122,628
278,312	4,101	240,029	122,464
279,326	4,359	239,955	122,620
280,341	4,360	239,794	122,528
281,355	4,376	239,518	122,389
282,370	4,449	239,485	122,419
283,384	4,402	239,298	122,275
284,399	4,287	238,961	122,000
285,414	4,169	238,883	121,857
286,428	4,362	238,830	121,971
287,443	4,388	238,528	121,827
288,457	4,530	238,554	121,941
289,472	4,655	238,363	121,931
290,487	4,509	238,213	121,728
291,501	4,139	238,008	121,321
292,516	4,170	237,773	121,215
293,530	4,121	237,641	121,098
294,545	4,446	237,552	121,298
295,560	4,388	237,356	121,142
296,574	3,986	237,225	120,748
297,589	4,196	237,065	120,821
298,603	4,502	236,993	121,013
299,618	4,606	236,887	121,030
300,633	4,379	236,811	120,803
301,647	4,610	236,693	120,912
302,662	5,015	236,554	121,146
303,676	4,936	236,410	121,000
304,691	4,731	236,158	120,701
305,706	4,843	236,200	120,799
306,720	4,655	236,003	120,541
307,735	4,715	235,746	120,446
308,749	4,459	235,629	120,176
309,764	4,374	235,293	119,928
310,779	4,357	234,997	119,752
311,793	4,146	234,917	119,538
312,808	4,082	234,702	119,368
313,822	3,949	234,639	119,222
314,837	4,106	234,433	119,229
315,852	4,047	234,317	119,113
316,866	4,131	234,230	119,123
317,881	4,293	234,153	119,199
318,895	4,206	233,935	119,009
319,910	4,525	233,815	119,184
320,925	4,752	233,549	119,213
321,939	4,163	233,494	118,721
322,954	4,396	233,487	118,886
323,968	4,524	233,155	118,805
324,983	4,398	233,213	118,727
325,997	4,488	233,158	118,758
327,012	4,766	232,896	118,827
328,027	4,503	232,652	118,490
329,041	4,821	232,629	118,712
330,056	5,254	232,624	119,031
331,070	5,116	232,545	118,874
332,085	4,903	232,057	118,451
333,100	4,791	231,714	118,180
334,114	4,437	231,798	117,942
335,129	4,751	231,885	118,215
336,143	4,941	231,669	118,240
337,158	4,976	231,290	118,062
338,173	4,682	231,162	117,762
339,187	4,606	231,001	117,612
340,202	4,573	230,813	117,481
341,216	4,542	230,857	117,469
342,231	4,190	230,709	117,116
343,246	4,401	230,540	117,180
344,260	4,338	230,390	117,046
345,275	4,892	230,388	117,454
346,289	4,915	230,163	117,347
347,304	4,998	229,991	117,311
348,319	4,711	229,914	117,045
349,333	4,568	229,627	116,780
350,348	4,515	229,512	116,670
351,362	4,561	229,464	116,671
352,377	4,246	229,190	116,284
353,392	3,869	229,090	115,938
354,406	4,089	228,960	116,027
355,421	195,104	1320,329	1394,568
356,435	156,469	1453,261	1394,527
