DTS Sentinel unit serial number:	SN410029Multiplexer serial number:	ORYXHardware model number:	OX2-SRSoftware version number:	ORYX F/W v4,00 Oryx Data Collector v3.7.2.0data status	okinstallation	B5 Nyhavnadifferential loss correction	single-endedforward channel	channel 2reverse channel	N/Adate	2023/12/12time	14:47:13forward acquisition time	300,00reverse acquisition time	0,00gamma	499,1914k internal	0,3157k external	0,3157temperature offset calibration	1,0000default loss term (dB/km)	0,3820temperature slope calibration	1,0000multiplexer offset coefficient	1,0000multiplexer slope coefficient	1,0000fibre end	0,00T internal ref (°C)	15,89T ext. ref 1 (°C)	-0,35T ext. ref 2 (°C)	-0,61length (m)	temperature (°C)	Stokes	anti-Stokes-744,400	-100,439	0,041	0,007
-743,385	-122,820	-0,237	-0,028
-742,371	-105,268	0,195	-0,032
-741,356	250,320	-0,062	0,078
-740,342	-12,433	0,093	0,045
-739,327	-131,535	-0,268	-0,026
-738,312	-144,908	0,197	-0,013
-737,298	-62,647	-0,213	0,065
-736,283	173,667	-0,032	-0,035
-735,269	-101,499	-0,277	0,049
-734,254	-91,905	0,128	-0,027
-733,239	-1,433	-0,496	-0,257
-732,225	-94,897	0,171	-0,034
-731,210	-58,374	0,022	0,007
-730,196	-111,394	-0,082	-0,012
-729,181	-200,000	-0,004	-0,127
-728,167	91,440	-0,107	-0,089
-727,152	783,724	-0,075	-0,152
-726,137	71,461	-0,112	-0,086
-725,123	-200,000	0,004	-0,026
-724,108	-64,494	-0,113	-0,033
-723,094	-85,041	0,086	0,020
-722,079	-3,935	-0,071	0,036
-721,064	-107,327	0,100	-0,016
-720,050	85,221	-0,039	-0,032
-719,035	-57,237	0,098	-0,032
-718,021	591,536	0,011	-0,019
-717,006	308,680	-0,083	0,115
-715,991	249,725	-0,068	0,086
-714,977	160,946	-0,055	0,056
-713,962	168,842	-0,026	0,028
-712,948	-105,036	-0,123	-0,021
-711,933	290,564	0,030	0,040
-710,918	12,295	0,045	0,025
-709,904	156,418	-0,178	-0,181
-708,889	-200,000	0,018	-0,062
-707,875	800,000	-0,021	-0,046
-706,860	-200,000	0,011	0,047
-705,845	139,832	-0,021	0,020
-704,831	403,438	-0,054	0,084
-703,816	5,895	0,018	0,010
-702,802	517,109	-0,070	-0,120
-701,787	171,019	-0,083	-0,088
-700,772	-200,000	-0,025	-0,167
-699,758	-200,000	0,004	0,099
-698,743	-200,000	0,004	-0,142
-697,729	42,543	-0,015	0,010
-696,714	-38,067	-0,046	0,018
-695,699	-5,052	-0,069	0,035
-694,685	-200,000	-0,006	-0,117
-693,670	424,602	-0,025	-0,040
-692,656	416,822	-0,083	-0,131
-691,641	459,735	0,059	-0,097
-690,627	-200,000	0,002	-0,023
-689,612	322,912	0,048	0,068
-688,597	-200,000	-0,011	0,071
-687,583	-7,049	-0,058	-0,029
-686,568	-130,575	-0,048	-0,005
-685,554	800,000	-0,043	-0,111
-684,539	158,860	0,014	0,014
-683,524	800,000	0,015	0,037
-682,510	-200,000	-0,016	-0,155
-681,495	-153,606	-0,102	0,005
-680,481	424,558	0,017	-0,027
-679,466	88,525	-0,137	-0,112
-678,451	800,000	-0,048	0,130
-677,437	23,564	0,208	0,125
-676,422	590,460	-0,064	0,117
-675,408	-9,287	0,108	0,053
-674,393	353,861	-0,101	0,147
-673,378	-111,759	-0,073	-0,011
-672,364	88,672	-0,151	-0,124
-671,349	65,690	0,080	-0,060
-670,335	-28,489	0,098	0,041
-669,320	-153,416	-0,056	0,003
-668,305	-131,344	0,049	0,005
-667,291	-90,552	-0,116	-0,025
-666,276	-200,000	0,012	0,051
-665,262	65,549	0,060	-0,044
-664,247	-48,760	-0,143	-0,050
-663,232	-61,685	-0,108	-0,033
-662,218	800,000	0,035	-0,093
-661,203	335,047	0,071	-0,102
-660,189	800,000	-0,039	-0,104
-659,174	29,928	0,101	-0,063
-658,159	133,477	-0,046	-0,044
-657,145	-51,969	0,078	-0,026
-656,130	-57,939	0,071	-0,023
-655,116	366,089	-0,009	-0,014
-654,101	19,550	0,055	-0,032
-653,086	-200,000	-0,009	-0,070
-652,072	800,000	-0,034	0,106
-651,057	357,342	-0,090	-0,133
-650,043	358,856	0,056	-0,083
-649,028	166,007	-0,041	0,042
-648,014	-200,000	-0,031	0,109
-646,999	409,534	0,022	-0,034
-645,984	302,302	-0,032	0,043
-644,970	800,000	0,032	-0,075
-643,955	-200,000	0,010	-0,151
-642,941	-153,219	-0,105	-0,005
-641,926	228,290	0,113	0,136
-640,911	-198,023	0,130	-0,001
-639,897	800,000	0,032	0,080
-638,882	800,000	0,039	-0,105
-637,868	122,544	-0,063	-0,058
-636,853	292,545	-0,046	0,062
-635,838	-200,000	0,000	0,022
-634,824	-200,000	-0,007	0,037
-633,809	-60,149	-0,099	0,031
-632,795	71,923	0,089	0,068
-631,780	-200,000	0,011	-0,089
-630,765	50,731	-0,093	-0,065
-629,751	-200,000	0,039	-0,189
-628,736	-100,694	-0,161	0,029
-627,722	-200,000	0,011	-0,051
-626,707	-141,721	-0,061	0,004
-625,692	21,326	0,062	-0,037
-624,678	-200,000	-0,026	-0,119
-623,663	16,905	-0,064	-0,037
-622,649	800,000	-0,045	-0,108
-621,634	2,123	-0,165	0,087
-620,619	28,706	0,057	0,036
-619,605	5,174	0,029	0,016
-618,590	437,054	-0,099	0,159
-617,576	644,615	0,071	-0,133
-616,561	125,135	-0,120	-0,111
-615,546	-91,627	-0,088	-0,018
-614,532	552,183	-0,043	-0,075
-613,517	-148,594	-0,048	0,003
-612,503	800,000	0,029	0,088
-611,488	426,132	-0,041	0,066
-610,474	82,494	0,060	0,048
-609,459	-200,000	-0,004	-0,084
-608,444	452,043	0,058	-0,094
-607,430	-80,364	-0,125	0,030
-606,415	-77,619	0,073	-0,018
-605,401	800,000	-0,053	-0,138
-604,386	-200,000	0,006	0,083
-603,371	115,741	0,118	0,106
-602,357	-151,097	-0,030	0,002
-601,342	-91,360	-0,091	0,019
-600,328	800,000	0,052	-0,122
-599,313	720,207	0,059	0,115
-598,298	-16,049	-0,073	0,034
-597,284	800,000	0,045	-0,098
-596,269	-200,000	0,001	-0,027
-595,255	-58,867	0,111	-0,035
-594,240	234,375	-0,014	0,016
-593,225	181,939	-0,083	-0,090
-592,211	-70,946	-0,019	0,005
-591,196	-40,297	0,048	-0,018
-590,182	-200,000	0,019	0,064
-589,167	778,386	0,054	0,110
-588,152	119,084	-0,021	0,019
-587,138	-200,000	0,031	-0,134
-586,123	300,301	0,010	-0,014
-585,109	393,593	-0,092	0,141
-584,094	-200,000	-0,010	-0,109
-583,079	-135,520	-0,054	0,005
-582,065	43,645	-0,084	-0,056
-581,050	45,681	-0,066	-0,045
-580,036	-111,217	0,085	0,013
-579,021	800,000	-0,005	0,013
-578,006	-136,312	-0,076	0,006
-576,992	-200,000	-0,006	0,055
-575,977	-2,239	0,080	0,041
-574,963	-115,378	-0,075	-0,010
-573,948	353,734	0,097	0,141
-572,934	116,032	-0,009	0,008
-571,919	800,000	-0,082	-0,175
-570,904	103,427	-0,058	-0,050
-569,890	-200,000	-0,013	0,063
-568,875	-70,938	-0,076	-0,021
-567,861	-157,468	0,072	0,003
-566,846	800,000	-0,054	0,140
-565,831	351,319	0,086	0,125
-564,817	-64,725	-0,084	0,025
-563,802	696,496	-0,032	0,062
-562,788	-200,000	-0,010	-0,040
-561,773	14,577	-0,066	-0,037
-560,758	-64,335	0,202	-0,060
-559,744	551,587	-0,026	0,045
-558,729	-134,756	0,170	-0,015
-557,715	-77,221	-0,107	-0,027
-556,700	284,544	-0,035	0,047
-555,685	389,016	-0,012	-0,018
-554,671	8,239	-0,022	-0,012
-553,656	17,524	-0,031	0,018
-552,642	-99,791	0,177	-0,032
-551,627	-200,000	-0,009	0,055
-550,612	-200,000	-0,028	-0,097
-549,598	800,000	0,051	-0,137
-548,583	-200,000	-0,005	0,038
-547,569	800,000	0,040	0,130
-546,554	477,295	-0,084	0,140
-545,539	800,000	-0,036	0,087
-544,525	800,000	-0,048	0,128
-543,510	800,000	0,015	0,047
-542,496	-59,996	-0,052	-0,016
-541,481	273,733	0,043	-0,056
-540,466	112,046	-0,096	-0,085
-539,452	-97,659	0,063	-0,012
-538,437	-78,454	-0,083	-0,021
-537,423	-200,000	-0,006	-0,057
-536,408	274,058	-0,083	-0,108
-535,393	25,833	0,107	-0,065
-534,379	-200,000	-0,009	0,066
-533,364	202,652	0,031	-0,035
-532,350	-200,000	0,018	0,079
-531,335	-156,744	-0,022	-0,001
-530,321	-82,921	0,080	-0,019
-529,306	2,633	0,048	0,025
-528,291	212,656	-0,023	-0,027
-527,277	495,271	-0,018	-0,030
-526,262	-116,087	0,037	0,005
-525,248	-23,304	0,137	0,060
-524,233	-20,910	-0,051	-0,023
-523,218	800,000	-0,051	0,115
-522,204	800,000	-0,071	0,147
-521,189	29,305	-0,142	-0,088
-520,175	24,061	-0,027	-0,016
-519,160	-39,248	-0,048	0,018
-518,145	-200,000	-0,010	0,076
-517,131	143,655	0,036	-0,035
-516,116	-93,708	0,030	-0,006
-515,102	30,421	0,032	0,020
-514,087	182,635	0,042	0,045
-513,072	776,560	0,058	-0,116
-512,058	300,338	-0,049	0,067
-511,043	800,000	0,057	-0,180
-510,029	-200,000	-0,006	0,095
-509,014	142,354	-0,057	0,055
-507,999	208,212	0,082	-0,094
-506,985	-200,000	-0,010	0,033
-505,970	484,707	0,017	0,028
-504,956	-200,000	0,003	-0,095
-503,941	800,000	-0,044	0,102
-502,926	-200,000	-0,023	0,090
-501,912	0,451	0,029	-0,015
-500,897	-200,000	0,023	0,166
-499,883	115,961	-0,014	0,013
-498,868	167,003	0,073	-0,076
-497,853	-144,360	-0,068	-0,005
-496,839	10,916	-0,048	-0,026
-495,824	-153,501	-0,089	0,004
-494,810	-200,000	0,010	-0,134
-493,795	350,760	-0,016	0,024
-492,781	78,957	-0,113	0,088
-491,766	800,000	-0,040	-0,110
-490,751	-158,711	-0,097	-0,004
-489,737	33,865	-0,066	-0,042
-488,722	-125,633	0,134	-0,015
-487,708	-200,000	-0,007	0,096
-486,693	-200,000	-0,007	-0,025
-485,678	-43,509	-0,124	-0,046
-484,664	99,585	-0,098	-0,083
-483,649	800,000	0,084	-0,186
-482,635	-85,443	0,088	-0,020
-481,620	-200,000	0,005	-0,077
-480,605	-139,246	0,128	0,010
-479,591	82,868	0,128	0,102
-478,576	800,000	-0,045	0,115
-477,562	-200,000	0,028	-0,098
-476,547	4,550	-0,082	-0,044
-475,532	194,527	0,099	0,109
-474,518	-200,000	0,022	0,115
-473,503	-200,000	-0,011	0,071
-472,489	773,469	-0,026	0,052
-471,474	206,480	-0,108	-0,123
-470,459	-200,000	0,001	0,065
-469,445	105,507	-0,204	-0,176
-468,430	92,138	-0,030	0,025
-467,416	2,443	0,071	0,037
-466,401	-129,355	-0,119	0,012
-465,386	-131,938	0,022	-0,002
-464,372	800,000	0,073	0,228
-463,357	-200,000	0,001	-0,026
-462,343	-200,000	-0,001	0,044
-461,328	192,497	-0,101	0,112
-460,313	576,229	0,054	0,096
-459,299	800,000	-0,055	-0,154
-458,284	88,033	0,024	-0,019
-457,270	800,000	-0,022	-0,048
-456,255	-200,000	0,010	-0,072
-455,241	133,558	-0,061	-0,058
-454,226	41,350	-0,049	0,032
-453,211	-98,281	-0,094	-0,017
-452,197	310,278	-0,052	0,072
-451,182	-91,771	0,097	0,020
-450,168	-85,018	0,096	0,022
-449,153	296,294	-0,049	0,065
-448,138	800,000	-0,010	-0,027
-447,124	800,000	0,063	0,180
-446,109	344,311	0,013	0,018
-445,095	252,690	0,083	0,103
-444,080	-200,000	0,017	-0,067
-443,065	-200,000	-0,022	0,079
-442,051	-200,000	-0,005	-0,041
-441,036	-40,530	-0,015	0,006
-440,022	-200,000	-0,001	-0,067
-439,007	443,265	0,101	0,162
-437,992	-77,953	0,122	0,030
-436,978	-53,614	0,067	0,022
-435,963	-200,000	-0,005	0,016
-434,949	-13,943	0,111	-0,052
-433,934	800,000	-0,018	-0,044
-432,919	143,349	0,062	-0,061
-431,905	-88,939	0,117	0,025
-430,890	272,046	0,059	0,075
-429,876	107,603	0,084	0,073
-428,861	176,792	0,018	0,019
-427,846	-200,000	0,022	-0,093
-426,832	-47,067	-0,061	-0,021
-425,817	-200,000	0,009	-0,038
-424,803	-115,866	0,114	-0,015
-423,788	624,877	-0,063	0,117
-422,773	50,887	0,138	0,095
-421,759	-3,048	0,053	0,027
-420,744	-167,078	-0,022	-0,001
-419,730	-200,000	-0,025	0,107
-418,715	-200,000	-0,016	-0,087
-417,701	127,182	0,018	-0,016
-416,686	800,000	0,029	0,063
-415,671	191,025	0,109	0,119
-414,657	800,000	0,044	0,123
-413,642	800,000	-0,042	0,104
-412,628	309,478	-0,065	0,089
-411,613	638,409	0,062	-0,115
-410,598	-89,891	0,158	-0,033
-409,584	-34,585	0,115	0,045
-408,569	-42,845	-0,054	-0,020
-407,555	800,000	-0,023	-0,050
-406,540	-200,000	0,001	0,066
-405,525	-200,000	-0,002	0,085
-404,511	51,647	-0,023	0,016
-403,496	-80,284	-0,140	-0,034
-402,482	-167,352	0,113	0,003
-401,467	800,000	0,014	0,038
-400,452	218,824	0,128	0,150
-399,438	14,597	0,082	0,046
-398,423	66,825	-0,061	-0,045
-397,409	800,000	-0,039	-0,093
-396,394	46,195	-0,111	-0,075
-395,379	39,241	-0,006	-0,004
-394,365	186,855	0,120	0,131
-393,350	165,438	0,094	0,097
-392,336	244,208	-0,071	-0,087
-391,321	-27,012	0,070	-0,030
-390,306	161,934	-0,061	0,063
-389,292	136,494	-0,050	-0,048
-388,277	-142,656	0,049	0,003
-387,263	240,729	-0,063	0,077
-386,248	-74,891	0,039	-0,010
-385,233	-200,000	0,007	-0,033
-384,219	-12,913	0,050	-0,023
-383,204	800,000	-0,046	-0,119
-382,190	-29,411	-0,083	-0,034
-381,175	-200,000	-0,024	0,083
-380,160	-159,572	-0,093	0,004
-379,146	-195,100	-0,019	0,000
-378,131	85,632	0,091	0,072
-377,117	373,626	-0,050	-0,075
-376,102	173,151	-0,082	-0,086
-375,088	466,488	-0,062	0,101
-374,073	8,968	0,047	0,026
-373,058	58,596	0,079	0,056
-372,044	-151,630	0,049	0,003
-371,029	800,000	0,053	-0,109
-370,015	-4,181	0,031	0,015
-369,000	-124,484	-0,123	-0,014
-367,985	800,000	-0,023	-0,047
-366,971	478,201	0,047	-0,078
-365,956	-41,228	0,045	0,017
-364,942	69,438	0,091	-0,068
-363,927	-200,000	0,005	0,063
-362,912	-200,000	0,027	-0,208
-361,898	166,326	0,078	-0,080
-360,883	-200,000	-0,000	0,124
-359,869	-200,000	0,009	0,046
-358,854	-31,601	-0,036	-0,015
-357,839	-85,944	-0,078	0,017
-356,825	-77,744	-0,084	-0,021
-355,810	116,592	-0,062	-0,056
-354,796	-56,250	0,046	0,015
-353,781	101,661	-0,097	-0,082
-352,766	-76,895	0,158	-0,040
-351,752	16,545	-0,026	0,015
-350,737	-200,000	-0,013	-0,186
-349,723	-182,240	0,025	0,000
-348,708	-125,086	0,094	-0,010
-347,693	-152,658	0,021	-0,001
-346,679	-71,543	-0,050	0,013
-345,664	7,357	0,079	-0,043
-344,650	-200,000	-0,141	-0,000
-343,635	451,402	-0,025	-0,040
-342,620	-21,303	0,058	-0,025
-341,606	57,061	0,102	-0,072
-340,591	501,378	0,040	-0,067
-339,577	-142,742	-0,121	0,008
-338,562	-200,000	-0,001	-0,046
-337,548	24,672	-0,030	0,018
-336,533	-53,078	0,071	-0,024
-335,518	-200,000	0,000	0,048
-334,504	-200,000	0,019	0,073
-333,489	-200,000	0,006	-0,058
-332,475	177,756	0,169	-0,179
-331,460	-200,000	0,011	-0,107
-330,445	-200,000	-0,016	0,070
-329,431	130,597	0,107	-0,100
-328,416	-200,000	0,029	0,154
-327,402	-200,000	-0,030	0,114
-326,387	-200,000	0,000	-0,070
-325,372	204,529	0,102	0,115
-324,358	800,000	-0,044	-0,121
-323,343	-99,387	-0,054	-0,010
-322,329	-200,000	-0,033	0,136
-321,314	62,238	0,076	-0,055
-320,299	246,915	-0,062	0,076
-319,285	93,410	-0,051	-0,042
-318,270	-68,067	0,070	0,020
-317,256	-72,576	-0,070	0,019
-316,241	-83,330	0,033	-0,008
-315,226	-20,114	0,092	0,041
-314,212	-34,142	-0,167	0,066
-313,197	-64,585	-0,040	0,012
-312,183	800,000	-0,012	-0,030
-311,168	199,921	0,086	-0,095
-310,153	-44,048	0,094	0,034
-309,139	24,231	-0,057	-0,034
-308,124	594,936	-0,048	-0,087
-307,110	-55,660	0,060	-0,019
-306,095	101,441	0,036	-0,030
-305,080	87,755	0,123	0,099
-304,066	-165,613	-0,130	-0,004
-303,051	-200,000	-0,049	-0,166
-302,037	-116,708	-0,081	0,011
-301,022	-200,000	-0,010	-0,144
-300,008	-44,464	0,025	-0,009
-298,993	-200,000	-0,030	-0,110
-297,978	-105,746	0,133	0,022
-296,964	92,569	-0,081	-0,066
-295,949	800,000	0,029	-0,070
-294,935	800,000	-0,041	-0,095
-293,920	-89,223	-0,083	0,018
-292,905	-50,360	0,071	0,024
-291,891	-38,685	-0,017	0,006
-290,876	788,720	0,035	0,071
-289,862	19,712	-0,044	-0,026
-288,847	-200,000	0,049	-0,175
-287,832	-200,000	0,007	-0,093
-286,818	74,749	-0,158	0,120
-285,803	-126,957	0,106	0,011
-284,789	102,179	0,051	-0,043
-283,774	-96,001	-0,152	-0,029
-282,759	800,000	0,026	-0,071
-281,745	800,000	0,034	0,071
-280,730	-200,000	-0,014	-0,055
-279,716	-200,000	0,006	-0,058
-278,701	72,352	-0,132	-0,100
-277,686	-64,778	-0,065	-0,019
-276,672	-91,231	0,138	0,028
-275,657	660,758	0,026	0,048
-274,643	382,548	-0,084	-0,126
-273,628	50,858	-0,048	-0,033
-272,613	21,675	0,137	0,081
-271,599	44,017	0,027	0,018
-270,584	472,758	-0,061	0,100
-269,570	16,761	-0,063	-0,036
-268,555	190,381	-0,026	-0,028
-267,540	95,878	0,039	-0,032
-266,526	20,441	-0,079	0,046
-265,511	-200,000	-0,008	-0,168
-264,497	-200,000	0,011	-0,089
-263,482	-171,839	0,158	0,004
-262,467	42,687	0,046	0,030
-261,453	-200,000	0,001	-0,037
-260,438	-2,482	0,080	-0,040
-259,424	800,000	-0,027	0,085
-258,409	800,000	0,027	0,070
-257,395	800,000	0,032	0,092
-256,380	81,615	-0,054	0,042
-255,365	800,000	0,016	-0,046
-254,351	-200,000	-0,008	0,126
-253,336	800,000	0,035	0,082
-252,322	-200,000	0,007	-0,130
-251,307	139,931	-0,107	0,102
-250,292	-200,000	0,011	-0,094
-249,278	-143,529	-0,086	0,006
-248,263	37,045	-0,024	0,015
-247,249	0,724	-0,137	-0,071
-246,234	-200,000	0,006	0,024
-245,219	161,376	0,074	0,075
-244,205	-157,156	0,115	-0,005
-243,190	800,000	-0,019	0,048
-242,176	-96,702	0,061	0,011
-241,161	-200,000	0,012	0,116
-240,146	22,816	0,023	-0,014
-239,132	237,309	-0,081	0,098
-238,117	800,000	0,020	0,042
-237,103	-28,514	-0,087	0,036
-236,088	-174,030	-0,042	-0,001
-235,073	-12,918	0,086	0,040
-234,059	72,961	0,087	0,066
-233,044	154,604	0,027	0,026
-232,030	3,134	0,175	0,092
-231,015	115,149	0,042	-0,037
-230,000	143,028	-0,050	0,048
-228,986	800,000	-0,036	0,076
-227,971	-200,000	0,010	0,068
-226,957	-98,404	0,100	-0,018
-225,942	-135,483	-0,024	0,002
-224,927	-82,523	-0,042	-0,010
-223,913	503,888	0,069	-0,115
-222,898	-200,000	-0,010	-0,152
-221,884	-5,087	0,051	-0,025
-220,869	133,638	0,039	-0,037
-219,855	-200,000	-0,031	0,114
-218,840	-200,000	0,005	0,135
-217,825	-200,000	-0,014	-0,055
-216,811	800,000	0,032	-0,072
-215,796	800,000	-0,009	-0,019
-214,782	800,000	-0,063	-0,144
-213,767	765,880	-0,031	-0,060
-212,752	-200,000	-0,001	0,044
-211,738	391,903	-0,072	0,109
-210,723	264,440	-0,034	-0,043
-209,709	-200,000	0,016	0,089
-208,694	28,270	-0,080	0,049
-207,679	354,668	-0,072	0,104
-206,665	460,345	0,049	0,079
-205,650	29,573	0,071	0,044
-204,636	-68,902	-0,098	-0,027
-203,621	800,000	0,011	-0,032
-202,606	-200,000	-0,012	-0,094
-201,592	9,498	-0,011	-0,006
-200,577	-68,756	0,050	0,014
-199,563	157,230	0,022	0,021
-198,548	-200,000	-0,018	0,117
-197,533	15,270	0,115	-0,065
-196,519	-170,679	-0,075	0,002
-195,504	-200,000	-0,005	0,056
-194,490	-100,407	-0,077	0,014
-193,475	800,000	0,088	-0,233
-192,460	650,403	-0,016	-0,029
-191,446	17,088	-0,092	-0,052
-190,431	-159,575	0,038	0,002
-189,417	45,476	0,097	0,065
-188,402	-200,000	-0,028	-0,117
-187,387	74,846	-0,153	-0,116
-186,373	-37,742	-0,112	0,043
-185,358	194,491	0,009	-0,010
-184,344	800,000	0,065	-0,143
-183,329	484,122	0,024	-0,040
-182,315	-85,637	0,161	-0,036
-181,300	71,006	-0,056	0,042
-180,285	-62,005	-0,152	0,045
-179,271	-200,000	0,010	0,098
-178,256	-183,322	0,096	0,001
-177,242	457,432	0,065	-0,105
-176,227	-200,000	-0,000	0,001
-175,212	-118,391	-0,090	0,011
-174,198	-58,912	-0,117	-0,036
-173,183	-163,806	-0,062	-0,002
-172,169	-97,379	0,099	-0,018
-171,154	-200,000	0,010	-0,090
-170,139	800,000	0,032	-0,078
-169,125	-200,000	-0,027	0,188
-168,110	379,779	-0,087	0,129
-167,096	-117,154	-0,185	0,024
-166,081	800,000	0,005	-0,012
-165,066	149,754	-0,019	-0,018
-164,052	677,229	0,028	-0,054
-163,037	-200,000	0,008	-0,089
-162,023	386,069	-0,017	-0,026
-161,008	-200,000	0,010	0,183
-159,993	192,153	0,068	0,074
-158,979	-200,000	0,034	-0,148
-157,964	-16,064	0,045	-0,021
-156,950	-200,000	-0,038	0,151
-155,935	-200,000	-0,005	-0,035
-154,920	342,540	0,087	0,123
-153,906	-200,000	-0,031	0,139
-152,891	187,976	0,037	-0,040
-151,877	800,000	-0,032	0,091
-150,862	-6,805	-0,110	0,054
-149,847	-200,000	0,029	0,113
-148,833	560,123	0,054	0,095
-147,818	800,000	0,035	0,072
-146,804	231,136	0,043	0,051
-145,789	-59,312	0,055	-0,017
-144,775	148,724	-0,125	-0,122
-143,760	15,488	0,078	0,044
-142,745	-200,000	0,008	-0,097
-141,731	33,176	0,084	-0,052
-140,716	576,881	0,011	0,019
-139,702	452,397	-0,067	0,107
-138,687	800,000	-0,029	0,077
-137,672	410,943	-0,040	-0,062
-136,658	711,684	-0,060	-0,114
-135,643	297,336	0,051	0,068
-134,629	-54,536	-0,066	-0,021
-133,614	800,000	0,031	0,068
-132,599	60,883	-0,024	-0,017
-131,585	371,608	0,017	0,025
-130,570	-131,726	0,089	-0,008
-129,556	63,486	-0,070	0,051
-128,541	507,884	0,028	0,046
-127,526	-3,924	-0,062	0,031
-126,512	464,875	-0,055	0,089
-125,497	-28,033	-0,068	-0,028
-124,483	-137,933	0,121	-0,010
-123,468	-70,045	-0,020	0,005
-122,453	800,000	-0,049	-0,122
-121,439	-144,830	-0,133	0,009
-120,424	-200,000	0,014	0,063
-119,410	130,552	-0,030	-0,028
-118,395	-145,743	-0,029	-0,002
-117,380	-122,252	-0,096	0,011
-116,366	-200,000	-0,007	-0,031
-115,351	128,339	-0,020	-0,018
-114,337	185,791	-0,017	0,018
-113,322	-200,000	0,010	0,140
-112,307	-200,000	0,002	0,070
-111,293	800,000	0,041	0,111
-110,278	536,116	-0,055	0,094
-109,264	-40,564	0,164	-0,061
-108,249	-62,388	-0,047	0,014
-107,234	800,000	0,034	-0,080
-106,220	-200,000	-0,009	-0,123
-105,205	800,000	0,032	0,084
-104,191	522,650	0,068	0,115
-103,176	-200,000	-0,036	0,154
-102,162	-112,435	-0,069	-0,010
-101,147	-98,892	-0,033	0,006
-100,132	-62,024	-0,113	-0,034
-99,118	-129,344	-0,113	-0,011
-98,103	130,215	0,097	-0,090
-97,089	-69,645	0,040	0,011
-96,074	800,000	0,059	0,122
-95,059	800,000	-0,053	0,140
-94,045	-101,947	0,126	0,022
-93,030	-68,417	0,115	0,032
-92,016	800,000	-0,025	-0,064
-91,001	-98,152	0,032	0,006
-89,986	-200,000	0,030	0,125
-88,972	184,609	0,004	-0,004
-87,957	66,969	-0,084	0,061
-86,943	55,953	0,059	0,041
-85,928	-200,000	-0,015	-0,052
-84,913	252,804	-0,072	0,089
-83,899	436,413	0,021	-0,033
-82,884	-200,000	0,027	0,150
-81,870	-200,000	-0,024	0,152
-80,855	-200,000	0,028	0,168
-79,840	603,483	0,020	-0,035
-78,826	568,625	0,046	-0,081
-77,811	17,382	-0,131	-0,074
-76,797	-14,482	0,059	-0,027
-75,782	407,732	-0,041	-0,063
-74,767	800,000	-0,026	-0,060
-73,753	-188,119	-0,097	0,001
-72,738	800,000	0,032	-0,098
-71,724	-49,548	-0,048	-0,016
-70,709	800,000	0,067	-0,178
-69,694	189,232	0,021	0,022
-68,680	-200,000	-0,034	0,121
-67,665	800,000	-0,029	0,065
-66,651	228,876	0,066	0,078
-65,636	154,817	-0,043	-0,042
-64,622	-99,261	0,117	0,021
-63,607	-200,000	-0,013	-0,122
-62,592	-200,000	0,029	-0,098
-61,578	50,399	0,090	0,061
-60,563	-4,994	-0,064	0,032
-59,549	-200,000	-0,009	0,135
-58,534	-6,238	-1,922	-0,939
-57,519	800,000	-0,341	-1,033
-56,505	-200,000	-1,100	-4,944
-55,490	63,901	0,762	0,549
-54,476	800,000	5,215	11,991
-53,461	-200,000	17,272	284,350
-52,446	800,000	722,778	2229,996
-51,432	544,880	1638,659	2821,124
-50,417	112,186	1631,197	1415,238
-49,403	76,322	1286,465	977,162
-48,388	32,861	1028,830	637,955
-47,373	20,334	990,734	572,989
-46,359	18,794	978,873	561,050
-45,344	16,230	974,833	550,312
-44,330	16,384	973,423	549,996
-43,315	15,938	971,579	547,475
-42,300	15,910	970,661	546,845
-41,286	15,888	969,707	546,215
-40,271	15,868	968,598	545,504
-39,257	15,917	967,792	545,188
-38,242	15,956	966,683	544,669
-37,227	15,963	965,860	544,206
-36,213	15,939	965,210	543,739
-35,198	15,952	964,253	543,219
-34,184	15,946	963,560	542,790
-33,169	15,949	962,373	542,110
-32,154	15,944	961,484	541,570
-31,140	15,943	960,616	541,055
-30,125	15,939	959,955	540,650
-29,111	15,894	959,248	540,085
-28,096	15,881	958,683	539,705
-27,082	15,947	957,902	539,453
-26,067	15,923	957,074	538,889
-25,052	15,859	956,319	538,237
-24,038	15,904	955,687	538,007
-23,023	15,938	955,046	537,732
-22,009	15,897	954,441	537,238
-20,994	15,928	953,720	536,912
-19,979	15,940	953,203	536,636
-18,965	15,869	952,676	536,090
-17,950	15,903	952,027	535,813
-16,936	15,956	951,293	535,548
-15,921	15,893	950,598	534,935
-14,906	15,744	949,923	534,057
-13,892	15,814	949,212	533,861
-12,877	15,781	948,520	533,345
-11,863	15,792	947,823	532,968
-10,848	15,801	947,343	532,705
-9,833	15,891	946,898	532,719
-8,819	15,896	946,153	532,294
-7,804	15,818	945,706	531,775
-6,790	15,773	945,111	531,276
-5,775	15,841	944,115	530,910
-4,760	15,818	943,835	530,661
-3,746	15,765	943,349	530,197
-2,731	15,724	942,641	529,648
-1,717	15,705	941,841	529,118
-0,702	15,694	941,177	528,688
0,313	15,450	940,619	528,401
1,327	18,533	938,447	536,860
2,342	27,393	795,996	478,889
3,356	24,269	459,999	271,935
4,371	-2,622	314,292	157,234
5,386	-6,733	296,136	143,979
6,400	-8,671	289,962	139,043
7,415	-9,222	287,684	137,396
8,429	-9,244	286,137	136,623
9,444	-9,467	285,244	135,966
10,459	-9,337	284,494	135,724
11,473	-9,492	283,988	135,319
12,488	-9,306	283,417	135,216
13,502	-9,384	282,987	134,924
14,517	-9,295	282,604	134,814
15,531	-9,271	281,911	134,495
16,546	-9,376	281,618	134,242
17,561	-9,447	281,431	134,073
18,575	-9,393	281,109	133,959
19,590	-9,486	280,639	133,634
20,604	-9,407	280,402	133,585
21,619	-9,416	280,091	133,417
22,634	-9,455	279,540	133,105
23,648	-9,543	279,368	132,927
24,663	-9,466	279,009	132,818
25,677	-9,532	278,813	132,650
26,692	-9,417	278,568	132,631
27,707	-9,549	278,306	132,368
28,721	-9,460	277,975	132,284
29,736	-9,448	277,676	132,141
30,750	-9,389	277,409	132,059
31,765	-9,640	277,357	131,785
32,780	-9,339	276,975	131,875
33,794	-9,357	276,739	131,734
34,809	-9,364	276,323	131,518
35,823	-9,434	276,115	131,341
36,838	-9,334	275,757	131,253
37,853	-9,516	275,526	130,961
38,867	-9,495	275,475	130,945
39,882	-9,503	275,326	130,854
40,896	-9,275	274,987	130,896
41,911	-9,464	274,609	130,527
42,926	-9,316	274,470	130,587
43,940	-9,549	274,214	130,237
44,955	-9,429	273,993	130,232
45,969	-9,354	273,746	130,173
46,984	-9,716	273,574	129,742
47,999	-9,922	273,127	129,326
49,013	-9,898	272,880	129,220
50,028	-9,995	272,706	129,036
51,042	-10,354	272,535	128,610
52,057	-10,159	272,143	128,594
53,071	-9,867	271,901	128,740
54,086	-9,941	271,817	128,620
55,101	-9,648	271,534	128,745
56,115	-9,617	271,340	128,671
57,130	-9,308	271,431	128,988
58,144	-9,236	271,257	128,961
59,159	-9,308	271,043	128,781
60,174	-9,340	270,704	128,579
61,188	-9,316	270,724	128,598
62,203	-9,252	270,328	128,458
63,217	-9,239	270,062	128,332
64,232	-9,303	269,804	128,139
65,247	-9,139	269,514	128,141
66,261	-9,374	269,305	127,815
67,276	-9,514	269,043	127,551
68,290	-9,552	268,829	127,403
69,305	-9,723	268,674	127,162
70,320	-9,457	268,329	127,230
71,334	-9,517	268,354	127,176
72,349	-9,327	268,000	127,170
73,363	-9,326	267,878	127,102
74,378	-9,394	267,567	126,881
75,393	-9,261	267,377	126,900
76,407	-9,231	267,216	126,840
77,422	-9,371	267,031	126,613
78,436	-9,294	266,731	126,530
79,451	-9,239	266,496	126,457
80,466	-9,481	266,403	126,182
81,480	-9,343	266,022	126,116
82,495	-9,419	265,888	125,972
83,509	-9,457	265,697	125,836
84,524	-9,369	265,311	125,721
85,539	-9,621	265,298	125,477
86,553	-9,722	265,122	125,291
87,568	-9,616	264,879	125,261
88,582	-9,598	264,610	125,138
89,597	-9,413	264,377	125,183
90,611	-9,476	264,335	125,095
91,626	-9,349	264,225	125,147
92,641	-9,426	264,057	124,987
93,655	-9,327	263,739	124,914
94,670	-9,404	263,441	124,692
95,684	-9,517	263,316	124,521
96,699	-9,435	263,055	124,460
97,714	-9,308	262,859	124,469
98,728	-9,355	262,599	124,293
99,743	-9,629	262,348	123,919
100,757	-9,748	262,139	123,704
101,772	-9,528	261,909	123,780
102,787	-9,398	261,780	123,823
103,801	-9,714	261,914	123,594
104,816	-9,351	261,478	123,700
105,830	-9,355	261,449	123,672
106,845	-9,286	261,189	123,599
107,860	-9,234	260,809	123,454
108,874	-9,275	260,647	123,330
109,889	-9,437	260,527	123,119
110,903	-9,567	260,276	122,875
111,918	-9,405	260,011	122,882
112,933	-9,447	259,905	122,784
113,947	-9,430	259,716	122,699
114,962	-9,399	259,610	122,665
115,976	-9,389	259,285	122,509
116,991	-9,222	259,078	122,547
118,006	-9,405	259,060	122,367
119,020	-9,314	258,940	122,378
120,035	-9,250	258,780	122,348
121,049	-9,368	258,584	122,142
122,064	-9,319	258,398	122,086
123,079	-9,227	258,276	122,098
124,093	-9,421	257,873	121,727
125,108	-9,769	257,638	121,301
126,122	-9,676	257,413	121,265
127,137	-9,788	257,179	121,047
128,151	-9,845	257,132	120,964
129,166	-9,749	256,961	120,957
130,181	-9,566	256,711	120,988
131,195	-9,561	256,440	120,853
132,210	-9,524	256,475	120,891
133,224	-9,211	256,061	120,956
134,239	-9,193	255,967	120,917
135,254	-9,299	255,834	120,751
136,268	-9,343	255,578	120,582
137,283	-9,691	255,146	120,067
138,297	-9,676	255,016	120,008
139,312	-9,774	254,892	119,854
140,327	-9,346	254,701	120,123
141,341	-9,132	254,666	120,280
142,356	-9,130	254,503	120,194
143,370	-9,144	254,330	120,089
144,385	-8,982	254,105	120,112
145,400	-9,257	253,990	119,811
146,414	-9,233	253,868	119,763
147,429	-9,174	253,460	119,610
148,443	-9,321	253,481	119,483
149,458	-9,132	253,284	119,542
150,473	-8,974	252,960	119,513
151,487	-9,332	252,794	119,118
152,502	-9,341	252,820	119,112
153,516	-9,122	252,658	119,213
154,531	-9,232	252,326	118,951
155,546	-9,111	252,227	118,996
156,560	-9,090	251,975	118,885
157,575	-9,273	251,846	118,658
158,589	-9,219	251,693	118,621
159,604	-9,192	251,595	118,587
160,619	-9,109	251,311	118,513
161,633	-9,247	251,108	118,290
162,648	-9,213	251,125	118,317
163,662	-9,189	250,895	118,218
164,677	-9,179	250,714	118,131
165,692	-9,248	250,584	118,001
166,706	-8,938	250,216	118,078
167,721	-9,142	250,078	117,831
168,735	-9,155	250,029	117,786
169,750	-9,145	249,855	117,702
170,764	-8,975	249,702	117,762
171,779	-8,877	249,585	117,779
172,794	-9,062	249,422	117,536
173,808	-9,012	249,041	117,388
174,823	-9,412	248,706	116,884
175,837	-9,604	248,648	116,685
176,852	-9,375	248,550	116,821
177,867	-9,100	248,561	117,046
178,881	-9,007	248,344	117,012
179,896	-9,187	248,312	116,836
180,910	-9,088	247,996	116,759
181,925	-9,141	247,765	116,595
182,940	-8,932	247,682	116,721
183,954	-9,098	247,402	116,441
184,969	-9,230	247,345	116,292
185,983	-9,271	247,074	116,121
186,998	-9,058	246,980	116,244
188,013	-9,021	246,799	116,179
189,027	-8,929	246,517	116,112
190,042	-9,117	246,370	115,877
191,056	-8,932	246,211	115,945
192,071	-9,234	246,124	115,643
193,086	-9,122	245,859	115,601
194,100	-9,020	245,728	115,613
195,115	-9,073	245,545	115,473
196,129	-9,050	245,410	115,419
197,144	-9,019	245,108	115,292
198,159	-9,087	244,951	115,152
199,173	-9,116	244,899	115,093
200,188	-9,126	244,584	114,926
201,202	-9,303	244,423	114,695
202,217	-9,694	244,209	114,263
203,232	-9,543	243,856	114,212
204,246	-9,397	244,009	114,393
205,261	-8,834	243,837	114,764
206,275	-9,579	243,508	113,988
207,290	-6,065	244,907	117,526
208,304	0,587	246,996	124,024
209,319	3,761	247,680	126,983
210,334	4,107	247,844	127,342
211,348	4,251	247,592	127,321
212,363	4,763	247,491	127,680
213,377	4,758	247,373	127,604
214,392	4,546	247,339	127,400
215,407	4,359	247,167	127,146
216,421	4,377	246,949	127,037
217,436	4,568	246,866	127,140
218,450	4,624	246,746	127,113
219,465	4,457	246,383	126,778
220,480	4,290	246,166	126,518
221,494	4,260	246,129	126,463
222,509	4,346	245,861	126,384
223,523	4,186	245,729	126,174
224,538	4,014	245,410	125,858
225,553	3,966	245,343	125,774
226,567	3,965	245,156	125,666
227,582	4,043	245,135	125,708
228,596	4,100	244,904	125,624
229,611	3,714	244,686	125,187
230,626	3,563	244,491	124,953
231,640	3,812	244,340	125,067
232,655	4,146	244,197	125,255
233,669	3,913	244,017	124,961
234,684	3,769	243,799	124,722
235,699	4,120	243,959	125,078
236,713	4,219	243,749	125,039
237,728	3,974	243,378	124,640
238,742	3,692	243,290	124,355
239,757	3,925	243,015	124,392
240,772	3,846	243,023	124,321
241,786	4,072	242,628	124,290
242,801	3,857	242,605	124,093
243,815	3,808	242,396	123,935
244,830	4,073	242,269	124,074
245,844	3,982	242,168	123,938
246,859	3,989	241,966	123,828
247,874	3,721	241,852	123,544
248,888	4,025	241,577	123,636
249,903	4,118	241,511	123,666
250,917	4,107	241,450	123,615
251,932	4,321	241,374	123,737
252,947	4,135	241,211	123,493
253,961	3,917	240,955	123,177
254,976	4,128	240,693	123,201
255,990	4,027	240,717	123,120
257,005	3,970	240,548	122,978
258,020	3,589	240,278	122,525
259,034	3,726	240,116	122,541
260,049	3,860	240,091	122,624
261,063	3,835	239,658	122,372
262,078	3,722	239,710	122,297
263,093	4,242	239,393	122,538
264,107	4,073	239,501	122,449
265,122	3,929	239,245	122,192
266,136	4,094	239,217	122,298
267,151	4,365	238,998	122,390
268,166	3,816	238,721	121,802
269,180	3,587	238,628	121,562
270,195	4,366	238,649	122,179
271,209	4,505	238,509	122,206
272,224	4,088	238,098	121,656
273,239	3,772	237,819	121,253
274,253	4,000	237,644	121,333
275,268	3,876	237,619	121,211
276,282	4,077	237,449	121,272
277,297	3,744	237,321	120,934
278,312	3,871	237,085	120,903
279,326	4,016	237,109	121,019
280,341	3,945	236,926	120,858
281,355	4,035	236,726	120,816
282,370	4,085	236,617	120,788
283,384	3,969	236,448	120,601
284,399	3,908	236,165	120,399
285,414	3,813	236,117	120,289
286,428	3,732	236,157	120,234
287,443	3,814	235,776	120,094
288,457	3,765	235,880	120,098
289,472	4,358	235,605	120,410
290,487	4,282	235,407	120,239
291,501	3,795	235,193	119,740
292,516	3,698	235,056	119,584
293,530	3,744	234,899	119,529
294,545	3,945	234,810	119,629
295,560	3,914	234,700	119,539
296,574	3,598	234,525	119,193
297,589	3,721	234,306	119,166
298,603	4,363	234,142	119,571
299,618	4,364	234,083	119,530
300,633	4,137	233,928	119,265
301,647	4,282	233,969	119,387
302,662	4,452	233,765	119,404
303,676	4,552	233,547	119,360
304,691	4,121	233,527	119,005
305,706	4,344	233,250	119,025
306,720	4,367	233,134	118,974
307,735	4,297	233,074	118,879
308,749	4,201	232,747	118,627
309,764	3,717	232,544	118,141
310,779	3,836	232,396	118,147
311,793	3,740	232,175	117,950
312,808	3,750	232,105	117,911
313,822	3,595	231,976	117,716
314,837	3,561	231,803	117,592
315,852	3,677	231,667	117,601
316,866	3,940	231,531	117,723
317,881	4,156	231,419	117,821
318,895	3,877	231,150	117,461
319,910	4,060	231,108	117,568
320,925	4,287	230,990	117,672
321,939	3,899	230,855	117,296
322,954	4,010	230,733	117,308
323,968	4,027	230,484	117,184
324,983	3,578	230,340	116,759
325,997	4,000	230,223	117,011
327,012	4,366	230,089	117,210
328,027	4,131	230,083	117,018
329,041	4,507	229,987	117,244
330,056	4,814	229,919	117,432
331,070	4,582	229,764	117,166
332,085	4,254	229,542	116,794
333,100	4,250	229,273	116,643
334,114	4,441	229,030	116,654
335,129	4,158	229,040	116,435
336,143	4,493	228,845	116,578
337,158	4,469	228,839	116,547
338,173	4,467	228,469	116,346
339,187	3,943	228,334	115,873
340,202	4,196	228,299	116,035
341,216	4,185	228,009	115,869
342,231	3,950	227,998	115,676
343,246	4,175	227,874	115,773
344,260	4,212	227,725	115,714
345,275	4,433	227,625	115,819
346,289	4,269	227,455	115,599
347,304	4,474	227,215	115,620
348,319	4,328	227,087	115,436
349,333	4,124	226,986	115,221
350,348	3,828	226,737	114,863
351,362	4,091	226,629	114,995
352,377	3,846	226,498	114,735
353,392	3,683	226,442	114,575
354,406	3,851	226,198	114,567
355,421	194,090	1324,067	1396,693
356,435	155,511	1457,829	1396,690
