DTS Sentinel unit serial number:	SN410029Multiplexer serial number:	ORYXHardware model number:	OX2-SRSoftware version number:	ORYX F/W v4,00 Oryx Data Collector v3.7.2.0data status	okinstallation	B5 Nyhavnadifferential loss correction	single-endedforward channel	channel 2reverse channel	N/Adate	2023/12/12time	06:42:13forward acquisition time	300,00reverse acquisition time	0,00gamma	499,1914k internal	0,3157k external	0,3157temperature offset calibration	1,0000default loss term (dB/km)	0,3820temperature slope calibration	1,0000multiplexer offset coefficient	1,0000multiplexer slope coefficient	1,0000fibre end	0,00T internal ref (°C)	15,20T ext. ref 1 (°C)	-1,14T ext. ref 2 (°C)	-1,44length (m)	temperature (°C)	Stokes	anti-Stokes-744,400	571,415	0,022	0,040
-743,385	-141,119	-0,291	0,022
-742,371	507,760	0,037	0,063
-741,356	57,434	-0,255	0,183
-740,342	-25,450	0,222	-0,096
-739,327	-116,528	-0,179	0,024
-738,312	-45,241	0,031	0,011
-737,298	-152,083	-0,337	0,018
-736,283	-51,182	0,053	0,018
-735,269	-164,649	-0,282	0,009
-734,254	93,523	0,088	-0,074
-733,239	20,187	-0,525	-0,312
-732,225	800,000	0,058	0,159
-731,210	-200,000	-0,022	0,168
-730,196	-200,000	0,007	0,111
-729,181	-200,000	0,023	-0,102
-728,167	-200,000	0,015	-0,104
-727,152	32,694	0,080	0,051
-726,137	4,080	-0,029	0,016
-725,123	-66,551	-0,084	0,024
-724,108	-32,870	-0,064	-0,026
-723,094	-49,845	-0,091	-0,031
-722,079	-200,000	-0,045	-0,150
-721,064	25,809	-0,091	-0,056
-720,050	800,000	0,036	-0,084
-719,035	-99,667	-0,064	0,012
-718,021	616,320	-0,016	-0,030
-717,006	0,757	-0,191	-0,101
-715,991	-83,428	-0,116	0,027
-714,977	90,217	-0,060	0,049
-713,962	-114,936	-0,131	0,018
-712,948	-2,796	-0,095	-0,049
-711,933	800,000	0,051	-0,147
-710,918	-145,017	-0,039	-0,003
-709,904	-40,128	0,106	0,041
-708,889	208,585	-0,109	-0,126
-707,875	800,000	-0,077	-0,158
-706,860	262,300	0,033	-0,043
-705,845	800,000	0,008	0,018
-704,831	-200,000	-0,024	-0,082
-703,816	-200,000	0,004	-0,213
-702,802	-200,000	-0,019	-0,076
-701,787	22,552	-0,066	0,040
-700,772	105,441	-0,099	0,086
-699,758	-200,000	-0,038	-0,153
-698,743	800,000	0,016	-0,039
-697,729	-121,099	-0,097	-0,012
-696,714	-22,325	-0,042	0,019
-695,699	800,000	-0,034	-0,103
-694,685	75,207	-0,102	-0,079
-693,670	-200,000	0,001	0,081
-692,656	-41,927	0,106	-0,040
-691,641	246,334	-0,033	-0,041
-690,627	-200,000	-0,013	-0,085
-689,612	50,663	-0,023	0,016
-688,597	2,383	-0,136	0,072
-687,583	-175,601	-0,068	-0,001
-686,568	-14,838	0,049	-0,023
-685,554	800,000	0,008	-0,017
-684,539	600,016	0,057	-0,105
-683,524	-84,089	-0,143	0,033
-682,510	139,789	-0,020	0,020
-681,495	112,870	-0,010	0,009
-680,481	-47,596	-0,051	0,018
-679,466	158,809	-0,147	-0,150
-678,451	-51,183	-0,124	0,042
-677,437	81,676	-0,031	0,025
-676,422	180,810	-0,036	0,039
-675,408	158,125	0,024	-0,025
-674,393	-200,000	-0,016	-0,060
-673,378	113,630	-0,077	-0,069
-672,364	137,506	0,068	-0,065
-671,349	-158,722	-0,122	0,005
-670,335	255,131	0,090	-0,114
-669,320	0,388	-0,083	-0,043
-668,305	137,048	0,121	-0,116
-667,291	203,467	-0,065	-0,074
-666,276	-164,843	0,018	0,001
-665,262	-31,896	-0,098	0,040
-664,247	8,462	-0,058	0,032
-663,232	800,000	-0,046	-0,120
-662,218	-200,000	-0,006	0,071
-661,203	334,242	0,063	-0,090
-660,189	290,743	-0,014	-0,019
-659,174	-200,000	-0,019	-0,183
-658,159	-3,009	-0,058	-0,029
-657,145	800,000	0,027	0,077
-656,130	-46,765	0,082	0,029
-655,116	-200,000	-0,031	0,137
-654,101	50,186	0,090	0,062
-653,086	391,277	0,030	0,046
-652,072	-200,000	-0,005	-0,050
-651,057	458,728	0,036	-0,059
-650,043	-200,000	-0,026	-0,116
-649,028	-47,846	0,163	0,058
-648,014	122,998	-0,040	-0,037
-646,999	-64,515	0,127	-0,038
-645,984	73,998	-0,159	-0,122
-644,970	-99,893	-0,061	0,011
-643,955	-200,000	-0,006	0,067
-642,941	-106,581	-0,047	-0,008
-641,926	-39,801	-0,038	-0,015
-640,911	78,791	0,073	0,057
-639,897	-143,742	0,127	-0,009
-638,882	372,055	-0,078	-0,117
-637,868	266,248	0,047	-0,060
-636,853	112,377	-0,110	-0,098
-635,838	6,571	-0,102	0,056
-634,824	0,624	-0,062	-0,032
-633,809	5,333	0,061	-0,033
-632,795	-200,000	-0,001	-0,058
-631,780	-97,287	0,169	0,032
-630,765	-27,405	-0,039	0,017
-629,751	20,294	-0,064	-0,038
-628,736	-129,153	-0,188	0,019
-627,722	68,541	0,013	0,010
-626,707	39,545	-0,124	-0,082
-625,692	-101,569	0,117	-0,021
-624,678	55,999	0,071	0,050
-623,663	-134,430	-0,008	0,001
-622,649	-200,000	0,023	-0,100
-621,634	800,000	-0,034	-0,079
-620,619	292,375	-0,004	0,005
-619,605	-200,000	-0,008	-0,044
-618,590	-11,002	0,077	0,037
-617,576	800,000	0,054	0,124
-616,561	-56,236	-0,100	0,033
-615,546	69,044	0,033	0,025
-614,532	-200,000	0,014	-0,112
-613,517	-200,000	-0,006	-0,116
-612,503	50,788	-0,045	0,031
-611,488	-200,000	-0,016	-0,053
-610,474	28,686	0,066	0,041
-609,459	330,124	-0,059	-0,083
-608,444	-200,000	-0,002	-0,024
-607,430	348,288	-0,063	-0,092
-606,415	-144,111	-0,067	-0,005
-605,401	84,609	0,181	0,145
-604,386	154,819	0,020	-0,020
-603,371	-200,000	0,021	-0,110
-602,357	-28,972	-0,049	0,020
-601,342	162,559	-0,078	-0,081
-600,328	773,161	0,012	-0,025
-599,313	-50,237	-0,156	0,054
-598,298	242,673	0,065	-0,080
-597,284	-123,112	-0,102	-0,012
-596,269	-114,334	0,060	-0,008
-595,255	800,000	-0,026	0,056
-594,240	-200,000	0,014	0,060
-593,225	-200,000	0,008	-0,131
-592,211	346,204	-0,057	-0,082
-591,196	280,687	0,050	-0,066
-590,182	800,000	-0,045	0,122
-589,167	-72,844	0,202	0,054
-588,152	29,650	-0,061	-0,038
-587,138	-200,000	-0,002	-0,039
-586,123	244,497	-0,044	-0,054
-585,109	800,000	-0,037	-0,096
-584,094	68,444	0,127	-0,095
-583,079	-154,634	0,039	0,002
-582,065	-65,456	0,034	-0,010
-581,050	800,000	0,008	-0,016
-580,036	26,336	-0,064	-0,039
-579,021	156,794	0,006	-0,006
-578,006	-200,000	-0,021	0,103
-576,992	-103,553	-0,059	0,010
-575,977	800,000	-0,045	-0,116
-574,963	800,000	-0,055	-0,164
-573,948	-200,000	-0,017	-0,077
-572,934	-34,545	-0,141	0,056
-571,919	-200,000	-0,021	-0,249
-570,904	43,466	-0,117	-0,078
-569,890	288,221	0,056	-0,075
-568,875	800,000	0,039	0,123
-567,861	17,672	0,051	-0,030
-566,846	-65,266	0,064	0,019
-565,831	169,312	0,011	-0,011
-564,817	800,000	-0,010	0,033
-563,802	800,000	0,045	-0,136
-562,788	29,454	-0,159	-0,099
-561,773	96,759	0,018	0,015
-560,758	92,758	0,061	0,050
-559,744	80,786	-0,050	0,039
-558,729	295,189	0,069	0,093
-557,715	800,000	0,005	0,013
-556,700	97,807	-0,099	-0,083
-555,685	58,058	0,057	-0,041
-554,671	234,993	-0,048	-0,058
-553,656	-200,000	0,014	0,113
-552,642	-200,000	0,036	0,130
-551,627	800,000	-0,025	-0,055
-550,612	-125,474	-0,081	0,009
-549,598	-84,603	0,069	0,016
-548,583	-41,385	-0,042	0,016
-547,569	89,611	-0,101	0,083
-546,554	-200,000	0,008	0,057
-545,539	-2,140	-0,104	0,053
-544,525	-119,782	0,028	0,003
-543,510	115,024	0,043	-0,038
-542,496	-169,168	0,115	0,003
-541,481	636,172	0,014	-0,027
-540,466	82,166	0,045	-0,036
-539,452	155,461	0,022	-0,022
-538,437	-200,000	-0,004	0,085
-537,423	800,000	0,054	0,129
-536,408	800,000	0,013	-0,029
-535,393	273,796	-0,049	-0,064
-534,379	-24,253	0,044	0,019
-533,364	-200,000	-0,001	0,040
-532,350	55,822	-0,099	0,070
-531,335	-200,000	0,010	-0,142
-530,321	-93,375	0,047	0,009
-529,306	-200,000	-0,003	-0,168
-528,291	136,371	-0,114	-0,109
-527,277	116,872	0,030	-0,027
-526,262	104,641	-0,026	0,023
-525,248	376,135	0,051	-0,076
-524,233	-177,005	0,213	0,004
-523,218	210,054	0,055	0,063
-522,204	800,000	-0,003	0,007
-521,189	118,776	-0,060	0,054
-520,175	468,530	-0,037	0,060
-519,160	139,265	-0,038	-0,036
-518,145	393,891	0,101	-0,154
-517,131	800,000	-0,030	0,082
-516,116	-200,000	-0,036	0,213
-515,102	401,329	0,026	-0,039
-514,087	-83,684	-0,121	-0,028
-513,072	-200,000	0,003	-0,069
-512,058	-200,000	0,013	-0,045
-511,043	-200,000	-0,008	-0,065
-510,029	-200,000	0,027	0,121
-509,014	147,774	0,058	0,057
-507,999	-127,881	-0,070	0,007
-506,985	-200,000	-0,008	-0,120
-505,970	205,176	0,019	0,021
-504,956	223,952	-0,065	-0,076
-503,941	329,444	0,071	-0,100
-502,926	14,886	0,028	0,016
-501,912	128,511	0,101	0,094
-500,897	-32,328	0,152	0,062
-499,883	800,000	0,022	-0,066
-498,868	-200,000	-0,003	-0,110
-497,853	-123,756	0,006	-0,001
-496,839	-200,000	0,017	0,085
-495,824	186,956	0,068	-0,074
-494,810	-200,000	-0,010	-0,071
-493,795	-46,863	0,106	0,038
-492,781	98,342	0,059	-0,049
-491,766	111,982	-0,155	-0,137
-490,751	-115,551	-0,091	0,012
-489,737	-200,000	0,012	-0,105
-488,722	-42,835	0,071	-0,026
-487,708	13,130	0,087	0,049
-486,693	113,148	-0,114	-0,101
-485,678	43,079	-0,081	0,054
-484,664	166,579	-0,025	0,026
-483,649	800,000	0,030	-0,066
-482,635	-125,627	-0,159	-0,017
-481,620	-1,433	0,150	0,077
-480,605	-162,621	0,027	0,001
-479,591	696,632	0,068	0,130
-478,576	-117,574	0,080	0,010
-477,562	-44,636	-0,266	-0,097
-476,547	157,195	0,039	-0,039
-475,532	-143,286	-0,078	-0,005
-474,518	-76,581	0,075	0,019
-473,503	-123,127	0,111	-0,013
-472,489	350,179	-0,099	0,144
-471,474	-191,883	-0,115	0,001
-470,459	800,000	-0,022	-0,062
-469,445	421,615	-0,043	-0,067
-468,430	-200,000	0,022	-0,079
-467,416	800,000	-0,049	-0,117
-466,401	-25,111	-0,016	-0,007
-465,386	-200,000	0,026	0,141
-464,372	73,498	-0,115	-0,088
-463,357	584,071	0,038	0,068
-462,343	-87,060	-0,057	0,013
-461,328	-63,821	-0,040	-0,012
-460,313	24,408	0,116	0,070
-459,299	438,796	-0,030	0,048
-458,284	-78,367	0,110	0,027
-457,270	-27,138	0,075	0,032
-456,255	-200,000	-0,013	-0,069
-455,241	71,098	-0,137	-0,104
-454,226	-151,722	-0,051	0,003
-453,211	-20,669	-0,149	0,066
-452,197	86,300	0,092	0,074
-451,182	-110,779	0,148	0,022
-450,168	446,938	0,069	0,111
-449,153	-48,293	-0,049	0,017
-448,138	-200,000	0,007	-0,140
-447,124	39,871	0,117	-0,077
-446,109	800,000	0,034	0,080
-445,095	293,886	-0,024	0,032
-444,080	800,000	0,056	0,155
-443,065	13,154	-0,096	0,054
-442,051	800,000	-0,049	-0,118
-441,036	30,155	-0,063	-0,039
-440,022	89,447	-0,089	-0,072
-439,007	-116,898	0,162	-0,021
-437,992	-200,000	-0,002	0,110
-436,978	57,790	0,064	-0,045
-435,963	-200,000	0,011	-0,073
-434,949	-89,520	0,023	-0,005
-433,934	-163,114	-0,154	-0,005
-432,919	96,363	-0,151	-0,126
-431,905	-200,000	0,001	-0,025
-430,890	188,397	0,089	0,097
-429,876	479,515	-0,029	0,047
-428,861	72,713	-0,140	0,107
-427,846	-159,064	0,066	0,003
-426,832	-82,566	-0,094	0,022
-425,817	-200,000	0,002	-0,079
-424,803	800,000	-0,009	-0,025
-423,788	-200,000	-0,057	0,191
-422,773	10,826	0,109	0,061
-421,759	-134,468	-0,031	0,003
-420,744	-86,984	-0,102	-0,022
-419,730	-27,798	0,092	-0,039
-418,715	458,448	0,026	0,042
-417,701	800,000	-0,042	0,100
-416,686	-200,000	-0,001	0,055
-415,671	-131,416	-0,028	0,003
-414,657	109,671	-0,091	0,080
-413,642	-200,000	0,009	-0,077
-412,628	103,278	-0,061	0,052
-411,613	176,291	0,069	0,073
-410,598	675,731	0,031	0,060
-409,584	-136,769	0,020	-0,002
-408,569	13,004	-0,088	0,050
-407,555	800,000	-0,021	0,048
-406,540	800,000	-0,027	-0,080
-405,525	-200,000	-0,009	-0,148
-404,511	5,275	-0,019	-0,010
-403,496	313,730	-0,038	0,053
-402,482	423,733	0,045	-0,071
-401,467	258,625	0,051	0,065
-400,452	-71,686	0,099	0,027
-399,438	-200,000	0,006	0,027
-398,423	279,109	0,043	-0,056
-397,409	271,567	-0,079	0,101
-396,394	-1,323	0,153	0,078
-395,379	-200,000	-0,003	0,040
-394,365	-164,875	0,070	-0,002
-393,350	-200,000	0,004	0,097
-392,336	-200,000	0,002	0,081
-391,321	-200,000	-0,014	-0,113
-390,306	-138,167	-0,142	-0,011
-389,292	-200,000	0,008	0,062
-388,277	-69,807	-0,042	0,012
-387,263	-130,343	-0,092	0,009
-386,248	29,565	0,051	0,031
-385,233	800,000	-0,023	0,064
-384,219	234,880	-0,015	0,018
-383,204	800,000	-0,020	0,042
-382,190	-87,382	0,069	0,015
-381,175	800,000	-0,012	0,025
-380,160	32,072	0,069	-0,043
-379,146	-200,000	0,010	0,130
-378,131	-89,842	0,199	0,042
-377,117	207,963	-0,065	0,074
-376,102	-77,221	-0,058	0,015
-375,088	800,000	0,034	0,105
-374,073	53,416	-0,018	-0,012
-373,058	91,861	0,114	0,093
-372,044	142,926	-0,018	-0,017
-371,029	2,055	-0,040	0,021
-370,015	25,419	0,056	0,034
-369,000	207,056	-0,074	-0,083
-367,985	-200,000	0,004	-0,053
-366,971	-200,000	-0,019	-0,080
-365,956	800,000	-0,020	-0,048
-364,942	-45,688	-0,072	-0,026
-363,927	292,241	-0,045	0,060
-362,912	57,780	0,071	0,051
-361,898	-83,276	-0,032	-0,007
-360,883	480,313	-0,030	-0,049
-359,869	402,688	0,048	-0,073
-358,854	-89,521	0,064	-0,014
-357,839	-136,673	0,112	-0,009
-356,825	800,000	0,060	0,164
-355,810	104,957	-0,116	0,100
-354,796	800,000	-0,048	0,102
-353,781	-200,000	-0,016	-0,064
-352,766	72,976	-0,048	-0,037
-351,752	357,545	0,063	0,092
-350,737	-75,869	0,126	0,032
-349,723	800,000	-0,017	0,040
-348,708	800,000	-0,045	0,119
-347,693	800,000	-0,040	-0,092
-346,679	366,973	-0,064	-0,095
-345,664	253,834	0,090	0,112
-344,650	307,904	0,073	0,099
-343,635	-200,000	-0,029	0,106
-342,620	623,620	-0,030	-0,056
-341,606	246,487	0,037	-0,045
-340,591	150,394	0,131	0,129
-339,577	207,477	-0,091	0,103
-338,562	-14,236	0,066	-0,031
-337,548	203,778	-0,090	0,101
-336,533	286,268	0,026	0,034
-335,518	59,370	0,142	0,102
-334,504	-200,000	-0,016	-0,093
-333,489	-137,373	-0,050	0,004
-332,475	800,000	0,020	0,043
-331,460	87,124	0,134	-0,107
-330,445	138,698	0,094	0,090
-329,431	383,090	-0,011	0,017
-328,416	-200,000	0,020	0,086
-327,402	8,788	-0,086	-0,047
-326,387	130,601	-0,104	-0,097
-325,372	800,000	-0,038	-0,086
-324,358	-26,738	0,042	0,018
-323,343	256,883	-0,029	-0,036
-322,329	143,897	-0,038	-0,036
-321,314	375,638	0,031	-0,046
-320,299	212,143	-0,148	0,169
-319,285	800,000	0,013	-0,032
-318,270	330,720	-0,022	0,031
-317,256	-139,099	-0,178	0,014
-316,241	197,257	0,082	0,091
-315,226	475,355	0,068	-0,111
-314,212	-200,000	0,009	-0,038
-313,197	800,000	-0,065	-0,147
-312,183	393,259	0,043	0,066
-311,168	-200,000	0,007	0,037
-310,153	292,326	-0,087	0,115
-309,139	-200,000	-0,023	-0,077
-308,124	-153,990	-0,047	-0,002
-307,110	75,626	0,039	-0,030
-306,095	800,000	0,013	-0,030
-305,080	-200,000	0,004	-0,068
-304,066	-200,000	0,031	-0,123
-303,051	493,586	-0,034	-0,058
-302,037	312,219	-0,064	0,088
-301,022	-200,000	0,005	0,021
-300,008	-150,345	0,051	-0,003
-298,993	-200,000	0,025	0,129
-297,978	-82,971	-0,071	-0,016
-296,964	-200,000	0,046	-0,159
-295,949	-200,000	-0,004	-0,029
-294,935	-200,000	-0,019	-0,156
-293,920	222,704	0,024	-0,028
-292,905	-200,000	0,038	0,152
-291,891	-67,961	0,108	0,030
-290,876	252,053	-0,071	-0,087
-289,862	-200,000	-0,006	0,086
-288,847	-200,000	0,019	0,095
-287,832	-200,000	0,024	-0,145
-286,818	68,093	-0,121	-0,090
-285,803	800,000	0,103	0,220
-284,789	-200,000	0,023	-0,077
-283,774	800,000	-0,026	0,071
-282,759	160,972	0,023	-0,024
-281,745	-129,058	0,121	0,012
-280,730	376,174	-0,055	-0,082
-279,716	113,767	-0,077	0,068
-278,701	-97,465	-0,092	0,017
-277,686	48,641	-0,074	-0,050
-276,672	313,553	0,037	0,050
-275,657	26,073	-0,044	0,027
-274,643	737,567	-0,021	-0,041
-273,628	88,755	-0,115	-0,092
-272,613	800,000	-0,058	0,124
-271,599	-18,584	-0,042	0,019
-270,584	191,342	0,107	-0,117
-269,570	800,000	-0,048	0,151
-268,555	102,704	-0,055	-0,046
-267,540	800,000	0,061	-0,133
-266,526	362,777	-0,033	-0,049
-265,511	-86,083	0,035	0,008
-264,497	-37,088	-0,071	0,027
-263,482	199,742	-0,047	-0,052
-262,467	-67,444	0,062	0,017
-261,453	800,000	-0,048	-0,127
-260,438	-152,752	0,089	-0,004
-259,424	-200,000	0,016	-0,116
-258,409	800,000	-0,027	-0,063
-257,395	800,000	-0,039	-0,091
-256,380	9,972	0,047	-0,026
-255,365	800,000	0,034	-0,091
-254,351	-145,131	-0,143	-0,009
-253,336	-200,000	-0,004	-0,102
-252,322	-24,730	-0,046	-0,020
-251,307	800,000	0,031	-0,071
-250,292	89,748	0,127	0,103
-249,278	-200,000	0,002	0,037
-248,263	135,437	0,082	0,077
-247,249	-200,000	-0,015	0,055
-246,234	-200,000	-0,019	0,071
-245,219	168,362	0,037	-0,038
-244,205	800,000	-0,038	-0,082
-243,190	-91,159	-0,069	0,014
-242,176	187,103	0,124	-0,133
-241,161	96,266	0,071	0,059
-240,146	-200,000	0,026	0,111
-239,132	-200,000	-0,008	0,033
-238,117	-200,000	-0,023	-0,162
-237,103	-31,599	-0,115	0,047
-236,088	53,574	-0,042	-0,029
-235,073	-200,000	0,001	0,044
-234,059	490,188	0,021	0,035
-233,044	-14,320	0,143	0,067
-232,030	287,652	-0,046	0,060
-231,015	-63,927	0,035	-0,010
-230,000	-48,549	-0,142	-0,049
-228,986	19,967	0,087	-0,051
-227,971	-135,681	0,030	0,003
-226,957	-200,000	0,033	0,120
-225,942	-200,000	-0,003	0,035
-224,927	67,464	-0,135	-0,099
-223,913	6,857	-0,099	-0,053
-222,898	514,686	-0,020	-0,033
-221,884	-18,671	-0,103	-0,046
-220,869	388,312	0,009	0,014
-219,855	-121,329	-0,105	0,012
-218,840	-200,000	0,018	0,087
-217,825	-200,000	-0,001	0,004
-216,811	-43,475	0,124	0,045
-215,796	78,680	-0,085	-0,066
-214,782	50,018	-0,056	-0,038
-213,767	-67,090	0,119	0,034
-212,752	-200,000	0,006	-0,079
-211,738	-137,302	0,072	-0,006
-210,723	-99,523	-0,040	-0,007
-209,709	-200,000	0,025	-0,140
-208,694	-199,392	-0,152	-0,001
-207,679	-200,000	0,021	0,102
-206,665	-103,975	0,108	-0,018
-205,650	800,000	-0,026	0,071
-204,636	-101,348	-0,138	-0,024
-203,621	-200,000	-0,000	0,157
-202,606	-54,773	-0,059	0,019
-201,592	84,251	0,066	-0,052
-200,577	-117,197	-0,092	-0,012
-199,563	-200,000	0,017	0,111
-198,548	-162,093	0,075	0,003
-197,533	-171,153	0,102	-0,002
-196,519	222,884	-0,130	0,152
-195,504	746,742	-0,025	0,049
-194,490	-39,286	0,108	0,041
-193,475	-200,000	-0,022	0,096
-192,460	137,321	-0,067	0,063
-191,446	-200,000	0,017	-0,100
-190,431	-13,860	0,122	0,057
-189,417	162,261	0,066	0,066
-188,402	96,034	0,092	-0,076
-187,387	30,729	0,071	-0,044
-186,373	-30,923	-0,141	0,057
-185,358	-24,090	-0,063	-0,027
-184,344	-200,000	0,057	0,000
-183,329	-200,000	0,011	0,131
-182,315	132,112	-0,026	-0,025
-181,300	-13,825	0,061	0,028
-180,285	4,792	-0,023	-0,012
-179,271	-200,000	0,157	0,000
-178,256	668,005	0,056	-0,104
-177,242	457,859	-0,054	0,087
-176,227	-200,000	-0,039	0,153
-175,212	78,341	-0,043	-0,033
-174,198	23,280	0,104	-0,061
-173,183	115,823	-0,047	0,041
-172,169	800,000	-0,041	-0,087
-171,154	395,569	-0,061	0,092
-170,139	-77,881	0,017	-0,004
-169,125	800,000	-0,046	0,146
-168,110	30,629	0,081	0,050
-167,096	-89,518	0,080	0,017
-166,081	109,295	-0,033	-0,029
-165,066	433,410	0,058	0,092
-164,052	724,026	0,050	-0,097
-163,037	-200,000	-0,001	0,137
-162,023	-26,466	0,058	0,025
-161,008	-167,929	0,130	0,004
-159,993	800,000	0,017	-0,050
-158,979	500,118	0,014	0,024
-157,964	265,473	0,077	0,098
-156,950	-33,100	0,168	-0,067
-155,935	-46,439	0,070	0,024
-154,920	-154,346	-0,119	0,006
-153,906	-148,653	0,135	-0,008
-152,891	-82,105	0,160	-0,037
-151,877	-68,746	-0,205	-0,057
-150,862	-33,953	-0,123	-0,049
-149,847	800,000	0,035	0,102
-148,833	-200,000	-0,022	-0,076
-147,818	800,000	0,036	0,078
-146,804	136,665	0,087	0,082
-145,789	-200,000	0,001	0,043
-144,775	-84,815	-0,093	0,021
-143,760	345,296	0,015	-0,021
-142,745	135,236	-0,071	-0,066
-141,731	-127,339	0,060	-0,006
-140,716	-73,689	-0,145	0,038
-139,702	-200,000	0,003	-0,074
-138,687	-71,580	0,006	0,002
-137,672	-200,000	0,024	-0,086
-136,658	725,061	-0,061	-0,118
-135,643	-182,376	-0,090	0,001
-134,629	800,000	0,029	-0,066
-133,614	-110,559	0,209	-0,031
-132,599	-200,000	0,027	-0,138
-131,585	-6,355	-0,096	0,047
-130,570	800,000	-0,024	-0,076
-129,556	344,828	-0,079	-0,112
-128,541	95,763	0,087	-0,072
-127,526	-33,999	0,064	-0,025
-126,512	-27,285	-0,061	0,025
-125,497	62,786	0,054	0,039
-124,483	-48,670	0,051	-0,018
-123,468	800,000	-0,039	0,084
-122,453	341,479	-0,100	-0,142
-121,439	159,063	0,116	0,116
-120,424	300,702	0,049	-0,065
-119,410	9,205	0,055	-0,030
-118,395	800,000	-0,063	0,182
-117,380	-93,569	-0,086	0,017
-116,366	54,992	-0,123	-0,086
-115,351	5,824	-0,067	0,036
-114,337	-113,779	-0,018	-0,002
-113,322	475,226	-0,055	0,090
-112,307	293,361	-0,056	-0,073
-111,293	135,091	0,019	-0,018
-110,278	161,834	0,023	-0,023
-109,264	-135,350	-0,075	-0,006
-108,249	800,000	-0,053	-0,121
-107,234	-200,000	-0,009	0,063
-106,220	-200,000	-0,006	-0,073
-105,205	-200,000	0,002	-0,030
-104,191	66,859	0,141	0,103
-103,176	-200,000	0,134	0,000
-102,162	149,689	0,098	0,095
-101,147	260,066	0,077	-0,095
-100,132	-47,438	-0,057	-0,020
-99,118	-131,337	0,030	-0,003
-98,103	184,613	-0,033	0,035
-97,089	153,453	0,100	0,098
-96,074	-128,654	0,110	0,011
-95,059	163,373	-0,109	-0,110
-94,045	503,435	0,052	-0,086
-93,030	-200,000	-0,019	-0,123
-92,016	676,673	-0,061	-0,114
-91,001	-126,618	-0,145	0,015
-89,986	170,150	0,120	0,124
-88,972	-200,000	0,000	0,110
-87,957	-191,572	-0,037	0,000
-86,943	800,000	0,063	0,180
-85,928	-200,000	-0,004	0,018
-84,913	-200,000	0,009	0,034
-83,899	-171,601	0,155	0,004
-82,884	-12,131	-0,058	0,027
-81,870	-114,535	0,068	-0,009
-80,855	-200,000	0,004	0,122
-79,840	-200,000	-0,001	-0,096
-78,826	256,364	0,027	-0,033
-77,811	442,612	-0,010	0,017
-76,797	500,254	0,107	0,178
-75,782	-200,000	-0,008	0,102
-74,767	179,113	0,113	0,119
-73,753	678,828	0,017	0,032
-72,738	-200,000	0,008	-0,142
-71,724	193,111	-0,063	-0,068
-70,709	434,839	-0,029	-0,046
-69,694	45,396	-0,087	0,058
-68,680	-200,000	-0,021	-0,077
-67,665	-114,570	0,074	0,010
-66,651	579,285	0,029	0,051
-65,636	-136,730	0,111	-0,009
-64,622	5,394	0,038	-0,020
-63,607	-103,753	-0,153	0,026
-62,592	-53,980	0,048	0,016
-61,578	-200,000	-0,002	0,014
-60,563	-160,809	0,084	0,003
-59,549	143,984	-0,122	0,117
-58,534	-2,549	-1,919	-0,962
-57,519	800,000	-0,267	-0,845
-56,505	-200,000	-1,242	-4,960
-55,490	8,696	0,755	0,407
-54,476	800,000	5,411	12,230
-53,461	-200,000	17,854	285,125
-52,446	800,000	727,986	2219,918
-51,432	535,693	1644,182	2810,823
-50,417	109,987	1634,737	1407,672
-49,403	75,990	1286,953	976,114
-48,388	32,004	1027,401	634,099
-47,373	20,166	989,354	571,580
-46,359	18,456	976,986	558,809
-45,344	15,536	973,085	547,000
-44,330	15,715	971,746	546,812
-43,315	15,284	969,781	544,276
-42,300	15,196	968,707	543,364
-41,286	15,175	967,728	542,726
-40,271	15,212	966,677	542,235
-39,257	15,228	965,842	541,798
-38,242	15,173	964,825	541,027
-37,227	15,275	963,968	540,858
-36,213	15,237	963,314	540,343
-35,198	15,198	962,322	539,642
-34,184	15,197	961,619	539,222
-33,169	15,259	960,523	538,785
-32,154	15,287	959,698	538,391
-31,140	15,235	958,847	537,725
-30,125	15,224	958,032	537,213
-29,111	15,217	957,252	536,732
-28,096	15,235	956,559	536,378
-27,082	15,232	956,071	536,075
-26,067	15,172	955,077	535,304
-25,052	15,151	954,505	534,894
-24,038	15,232	953,688	534,676
-23,023	15,270	953,083	534,436
-22,009	15,248	952,463	533,996
-20,994	15,235	951,698	533,504
-19,979	15,277	951,150	533,310
-18,965	15,297	950,313	532,884
-17,950	15,235	950,158	532,578
-16,936	15,178	949,217	531,846
-15,921	15,203	948,453	531,480
-14,906	15,111	948,074	530,951
-13,892	15,107	947,158	530,404
-12,877	15,057	946,549	529,882
-11,863	15,080	946,030	529,644
-10,848	15,153	945,349	529,474
-9,833	15,200	945,136	529,483
-8,819	15,224	944,264	529,050
-7,804	15,131	943,880	528,520
-6,790	15,089	943,219	527,995
-5,775	15,195	942,432	527,868
-4,760	15,189	941,764	527,454
-3,746	15,091	941,450	526,947
-2,731	15,001	940,500	526,112
-1,717	14,959	940,210	525,796
-0,702	14,984	939,303	525,346
0,313	14,786	938,638	525,140
1,327	18,124	936,444	534,380
2,342	27,259	793,905	477,234
3,356	24,139	458,530	270,843
4,371	-3,359	314,008	156,288
5,386	-7,611	295,876	142,951
6,400	-9,477	289,795	138,151
7,415	-9,966	287,466	136,547
8,429	-10,070	285,821	135,652
9,444	-10,103	284,963	135,200
10,459	-9,918	284,340	135,073
11,473	-9,884	283,601	134,742
12,488	-10,072	283,237	134,376
13,502	-10,049	282,644	134,104
14,517	-10,192	282,379	133,828
15,531	-10,040	281,788	133,683
16,546	-9,942	281,443	133,602
17,561	-9,959	280,996	133,362
18,575	-9,997	280,701	133,172
19,590	-10,077	280,309	132,898
20,604	-9,937	280,061	132,903
21,619	-10,180	279,658	132,467
22,634	-10,138	279,381	132,364
23,648	-10,044	278,984	132,255
24,663	-10,079	278,862	132,151
25,677	-9,991	278,541	132,072
26,692	-10,102	278,327	131,853
27,707	-10,071	277,963	131,698
28,721	-10,054	277,593	131,526
29,736	-10,112	277,377	131,357
30,750	-10,034	277,061	131,270
31,765	-10,107	276,859	131,094
32,780	-10,097	276,734	131,033
33,794	-10,156	276,572	130,888
34,809	-10,138	276,283	130,757
35,823	-10,056	275,881	130,632
36,838	-10,118	275,524	130,393
37,853	-10,240	275,432	130,223
38,867	-10,230	275,282	130,150
39,882	-10,111	275,028	130,130
40,896	-9,953	274,668	130,096
41,911	-10,058	274,452	129,884
42,926	-10,185	274,298	129,680
43,940	-10,058	273,854	129,578
44,955	-10,268	273,789	129,339
45,969	-10,205	273,545	129,272
46,984	-10,353	273,322	129,017
47,999	-10,472	272,886	128,688
49,013	-10,454	272,694	128,603
50,028	-10,578	272,356	128,317
51,042	-10,820	272,170	127,994
52,057	-10,845	271,891	127,828
53,071	-10,589	271,733	127,979
54,086	-10,718	271,512	127,744
55,101	-10,627	271,561	127,840
56,115	-10,228	271,272	128,061
57,130	-10,124	271,147	128,087
58,144	-9,963	270,890	128,104
59,159	-9,878	270,812	128,133
60,174	-9,949	270,412	127,867
61,188	-10,008	270,274	127,737
62,203	-10,135	270,045	127,499
63,217	-10,122	269,929	127,446
64,232	-9,983	269,614	127,413
65,247	-9,845	269,247	127,355
66,261	-9,902	268,925	127,139
67,276	-10,143	268,824	126,859
68,290	-10,274	268,547	126,598
69,305	-10,470	268,289	126,286
70,320	-10,290	268,028	126,316
71,334	-10,045	267,795	126,418
72,349	-10,086	267,755	126,350
73,363	-9,891	267,539	126,415
74,378	-9,781	267,359	126,418
75,393	-9,906	267,094	126,168
76,407	-9,899	266,912	126,077
77,422	-9,758	266,605	126,050
78,436	-10,137	266,521	125,654
79,451	-9,891	266,208	125,718
80,466	-10,126	266,115	125,451
81,480	-10,300	265,851	125,158
82,495	-10,087	265,540	125,193
83,509	-10,184	265,290	124,976
84,524	-10,252	265,242	124,881
85,539	-10,492	264,943	124,513
86,553	-10,422	264,620	124,413
87,568	-10,122	264,513	124,621
88,582	-10,095	264,205	124,489
89,597	-10,091	263,963	124,367
90,611	-9,926	263,984	124,514
91,626	-9,983	263,786	124,359
92,641	-9,959	263,592	124,278
93,655	-10,072	263,442	124,094
94,670	-10,127	263,171	123,907
95,684	-10,053	262,941	123,854
96,699	-10,126	262,808	123,715
97,714	-10,011	262,566	123,693
98,728	-10,106	262,185	123,417
99,743	-10,217	261,993	123,217
100,757	-10,301	261,845	123,062
101,772	-10,211	261,530	122,983
102,787	-10,203	261,499	122,965
103,801	-10,087	261,245	122,936
104,816	-10,002	261,277	123,017
105,830	-10,005	260,977	122,862
106,845	-9,988	260,742	122,755
107,860	-9,893	260,565	122,745
108,874	-10,036	260,373	122,517
109,889	-9,983	260,147	122,446
110,903	-10,073	259,835	122,209
111,918	-10,221	259,761	122,034
112,933	-10,195	259,666	122,000
113,947	-10,067	259,525	122,036
114,962	-9,974	259,232	121,970
115,976	-10,063	259,133	121,833
116,991	-10,007	258,722	121,679
118,006	-9,962	258,628	121,663
119,020	-9,999	258,498	121,559
120,035	-9,973	258,534	121,587
121,049	-9,886	258,156	121,475
122,064	-9,921	257,999	121,360
123,079	-10,011	257,842	121,197
124,093	-9,923	257,446	121,077
125,108	-10,146	257,428	120,863
126,122	-10,345	257,024	120,489
127,137	-10,427	256,807	120,304
128,151	-10,417	256,715	120,260
129,166	-10,356	256,585	120,241
130,181	-10,331	256,327	120,131
131,195	-10,296	256,205	120,094
132,210	-10,230	256,099	120,090
133,224	-10,034	255,772	120,096
134,239	-10,011	255,730	120,086
135,254	-10,085	255,392	119,852
136,268	-10,134	255,188	119,704
137,283	-10,285	254,840	119,399
138,297	-10,472	254,649	119,138
139,312	-10,385	254,547	119,155
140,327	-10,100	254,401	119,321
141,341	-9,915	254,331	119,437
142,356	-10,102	254,192	119,200
143,370	-9,861	253,999	119,306
144,385	-9,733	253,641	119,236
145,400	-9,791	253,668	119,189
146,414	-9,911	253,543	119,017
147,429	-9,786	253,161	118,934
148,443	-9,904	253,151	118,818
149,458	-9,703	252,837	118,832
150,473	-9,857	252,789	118,667
151,487	-9,982	252,560	118,442
152,502	-9,822	252,329	118,459
153,516	-9,806	252,249	118,425
154,531	-10,014	252,132	118,183
155,546	-9,634	251,808	118,343
156,560	-9,926	251,630	118,000
157,575	-9,865	251,236	117,857
158,589	-9,985	251,280	117,766
159,604	-9,782	250,868	117,734
160,619	-9,846	250,882	117,676
161,633	-9,715	250,622	117,654
162,648	-9,783	250,593	117,572
163,662	-9,550	250,291	117,617
164,677	-9,576	250,275	117,578
165,692	-9,626	249,995	117,393
166,706	-9,645	249,871	117,309
167,721	-9,785	249,680	117,091
168,735	-9,620	249,500	117,135
169,750	-9,806	249,475	116,956
170,764	-9,765	249,329	116,911
171,779	-9,312	248,964	117,110
172,794	-9,627	248,909	116,809
173,808	-9,866	248,767	116,532
174,823	-10,016	248,469	116,256
175,837	-10,203	248,248	115,985
176,852	-9,842	248,128	116,222
177,867	-9,770	248,117	116,266
178,881	-9,743	248,094	116,268
179,896	-9,790	247,755	116,059
180,910	-9,645	247,520	116,060
181,925	-9,861	247,315	115,773
182,940	-9,858	247,223	115,722
183,954	-9,632	247,036	115,813
184,969	-9,793	247,002	115,652
185,983	-9,842	246,883	115,545
186,998	-9,735	246,517	115,453
188,013	-9,705	246,295	115,363
189,027	-9,642	246,291	115,403
190,042	-9,844	246,104	115,138
191,056	-9,804	245,862	115,048
192,071	-9,715	245,733	115,051
193,086	-9,767	245,593	114,932
194,100	-9,669	245,360	114,894
195,115	-9,606	245,097	114,813
196,129	-9,799	245,005	114,600
197,144	-9,970	244,831	114,367
198,159	-9,711	244,609	114,466
199,173	-9,800	244,616	114,386
200,188	-9,828	244,372	114,239
201,202	-9,965	244,001	113,943
202,217	-10,142	243,659	113,628
203,232	-10,408	243,388	113,274
204,246	-10,073	243,610	113,641
205,261	-9,509	243,262	113,931
206,275	-10,444	242,938	113,004
207,290	-7,397	244,311	116,135
208,304	-0,341	246,372	122,935
209,319	3,323	247,404	126,469
210,334	3,863	247,574	126,991
211,348	3,880	247,351	126,879
212,363	4,095	247,286	127,012
213,377	4,288	247,251	127,142
214,392	4,271	246,887	126,929
215,407	3,897	246,894	126,613
216,421	3,930	246,707	126,533
217,436	4,393	246,466	126,779
218,450	4,454	246,341	126,754
219,465	4,254	245,964	126,384
220,480	3,883	245,972	126,073
221,494	3,638	245,762	125,753
222,509	3,937	245,554	125,881
223,523	3,787	245,299	125,616
224,538	3,374	245,133	125,182
225,553	3,499	244,977	125,193
226,567	3,553	244,919	125,197
227,582	3,736	244,670	125,207
228,596	3,790	244,724	125,268
229,611	3,717	244,336	124,999
230,626	3,429	244,134	124,650
231,640	3,450	244,110	124,643
232,655	3,562	243,817	124,574
233,669	3,716	243,591	124,572
234,684	3,380	243,522	124,254
235,699	3,645	243,540	124,466
236,713	3,819	243,427	124,538
237,728	3,679	243,087	124,240
238,742	3,420	242,826	123,886
239,757	3,536	242,693	123,901
240,772	3,241	242,547	123,577
241,786	3,571	242,329	123,722
242,801	3,650	242,226	123,721
243,815	3,419	242,115	123,467
244,830	3,496	242,061	123,491
245,844	3,756	241,849	123,581
246,859	3,496	241,629	123,248
247,874	3,503	241,553	123,204
248,888	3,651	241,346	123,206
249,903	3,593	241,304	123,128
250,917	3,774	241,164	123,191
251,932	3,821	240,981	123,123
252,947	3,532	240,838	122,808
253,961	3,554	240,548	122,667
254,976	3,757	240,454	122,770
255,990	3,830	240,338	122,759
257,005	3,597	240,044	122,411
258,020	3,469	239,907	122,229
259,034	3,713	239,786	122,351
260,049	3,724	239,602	122,254
261,063	3,463	239,484	121,976
262,078	3,465	239,341	121,893
263,093	3,857	239,244	122,145
264,107	3,776	239,061	121,976
265,122	3,546	238,802	121,651
266,136	3,769	238,810	121,821
267,151	3,796	238,646	121,748
268,166	3,469	238,430	121,368
269,180	3,356	238,198	121,149
270,195	4,010	238,278	121,696
271,209	4,043	237,985	121,562
272,224	3,527	237,771	121,035
273,239	3,329	237,486	120,722
274,253	3,383	237,539	120,782
275,268	3,631	237,240	120,814
276,282	3,852	237,199	120,957
277,297	3,616	236,897	120,606
278,312	3,368	237,061	120,484
279,326	3,881	236,653	120,668
280,341	3,658	236,558	120,434
281,355	3,569	236,530	120,339
282,370	4,024	236,387	120,613
283,384	3,484	236,117	120,041
284,399	3,527	235,853	119,930
285,414	3,510	235,735	119,846
286,428	3,471	235,636	119,754
287,443	3,667	235,623	119,890
288,457	3,725	235,456	119,840
289,472	3,911	235,135	119,811
290,487	3,728	235,087	119,633
291,501	3,529	234,843	119,343
292,516	3,286	234,695	119,069
293,530	3,308	234,589	119,021
294,545	3,685	234,488	119,252
295,560	3,648	234,355	119,145
296,574	3,448	234,034	118,816
297,589	3,599	233,878	118,843
298,603	3,871	233,876	119,042
299,618	3,864	233,913	119,046
300,633	3,521	233,780	118,702
301,647	3,967	233,568	118,929
302,662	4,054	233,536	118,968
303,676	4,157	233,299	118,916
304,691	3,956	233,176	118,688
305,706	3,929	233,026	118,581
306,720	3,889	232,840	118,444
307,735	3,957	232,723	118,427
308,749	3,895	232,431	118,220
309,764	3,761	232,171	117,975
310,779	3,464	231,982	117,640
311,793	3,134	231,881	117,325
312,808	3,319	231,679	117,354
313,822	3,442	231,437	117,315
314,837	3,520	231,315	117,303
315,852	3,328	231,368	117,172
316,866	3,643	231,227	117,332
317,881	3,955	231,229	117,560
318,895	3,918	231,115	117,463
319,910	4,046	230,980	117,482
320,925	3,817	230,569	117,088
321,939	3,430	230,429	116,712
322,954	3,717	230,359	116,884
323,968	3,336	230,201	116,504
324,983	3,608	229,993	116,595
325,997	3,958	229,997	116,852
327,012	3,771	229,819	116,610
328,027	3,706	229,513	116,395
329,041	3,744	229,644	116,480
330,056	4,046	229,534	116,642
331,070	4,339	229,299	116,734
332,085	4,283	229,147	116,604
333,100	4,065	228,835	116,270
334,114	3,784	228,747	116,003
335,129	3,880	228,726	116,054
336,143	4,035	228,584	116,089
337,158	4,127	228,507	116,109
338,173	4,177	228,167	115,964
339,187	4,047	228,150	115,846
340,202	4,074	227,854	115,706
341,216	3,926	227,885	115,600
342,231	3,626	227,692	115,267
343,246	3,636	227,454	115,144
344,260	3,870	227,493	115,329
345,275	4,076	227,301	115,376
346,289	4,110	227,238	115,358
347,304	3,935	227,062	115,128
348,319	4,055	226,957	115,154
349,333	3,963	226,583	114,885
350,348	3,830	226,404	114,686
351,362	3,869	226,355	114,679
352,377	3,800	226,147	114,512
353,392	3,659	225,919	114,282
354,406	3,597	225,848	114,189
355,421	193,539	1322,386	1393,034
356,435	155,050	1455,962	1393,028
