DTS Sentinel unit serial number:	SN410029Multiplexer serial number:	ORYXHardware model number:	OX2-SRSoftware version number:	ORYX F/W v4,00 Oryx Data Collector v3.7.2.0data status	okinstallation	B6 Nyhavnadifferential loss correction	single-endedforward channel	channel 2reverse channel	N/Adate	2023/12/07time	23:50:08forward acquisition time	300,00reverse acquisition time	0,00gamma	499,1914k internal	0,3164k external	0,3164temperature offset calibration	1,0000default loss term (dB/km)	0,3820temperature slope calibration	1,0000multiplexer offset coefficient	1,0000multiplexer slope coefficient	1,0000fibre end	0,00T internal ref (°C)	13,40T ext. ref 1 (°C)	-3,54T ext. ref 2 (°C)	-3,53length (m)	temperature (°C)	Stokes	anti-Stokes-744,400	-101,463	0,055	0,010
-743,385	1,314	-0,294	-0,155
-742,371	-76,725	0,117	0,030
-741,356	-112,355	-0,314	-0,046
-740,342	-43,796	0,181	0,067
-739,327	-123,357	-0,262	0,030
-738,312	58,761	0,144	0,104
-737,298	-73,175	-0,309	-0,083
-736,283	31,808	0,131	-0,083
-735,269	63,962	-0,243	0,180
-734,254	180,747	0,090	0,097
-733,239	21,435	-0,478	-0,285
-732,225	-110,925	0,243	-0,036
-731,210	274,902	-0,056	-0,073
-730,196	800,000	-0,028	-0,062
-729,181	-12,070	-0,086	-0,041
-728,167	-200,000	0,024	-0,115
-727,152	227,763	0,023	-0,028
-726,137	126,114	-0,090	-0,084
-725,123	29,727	-0,165	-0,103
-724,108	287,702	0,054	-0,071
-723,094	-112,065	-0,075	-0,011
-722,079	800,000	0,014	-0,042
-721,064	-86,271	0,070	0,016
-720,050	-200,000	0,010	-0,177
-719,035	59,499	-0,030	-0,022
-718,021	56,065	0,089	0,064
-717,006	731,234	-0,089	-0,175
-715,991	-25,801	0,064	-0,027
-714,977	-200,000	0,042	-0,141
-713,962	145,626	-0,027	-0,026
-712,948	145,134	0,072	0,070
-711,933	-200,000	-0,010	0,053
-710,918	651,507	0,009	-0,016
-709,904	318,994	-0,065	-0,091
-708,889	-200,000	-0,029	-0,139
-707,875	-200,000	-0,031	-0,129
-706,860	631,788	-0,057	0,106
-705,845	511,790	0,038	0,065
-704,831	68,529	-0,091	0,068
-703,816	-90,406	-0,088	0,019
-702,802	285,087	0,047	0,062
-701,787	48,634	-0,215	0,148
-700,772	61,365	0,070	-0,051
-699,758	71,517	0,060	-0,046
-698,743	286,429	0,051	0,067
-697,729	194,183	0,053	-0,059
-696,714	343,268	-0,037	0,054
-695,699	-66,332	-0,142	-0,041
-694,685	-131,154	0,075	0,007
-693,670	-119,576	-0,130	0,016
-692,656	25,609	0,037	-0,023
-691,641	-95,791	-0,138	-0,027
-690,627	-105,029	-0,025	0,004
-689,612	180,846	-0,090	-0,097
-688,597	670,944	-0,033	0,063
-687,583	24,032	-0,120	-0,073
-686,568	800,000	-0,037	-0,090
-685,554	800,000	-0,067	-0,159
-684,539	-132,493	-0,082	-0,008
-683,524	225,338	0,043	0,052
-682,510	183,471	0,029	-0,032
-681,495	789,969	-0,028	-0,057
-680,481	111,834	-0,077	-0,068
-679,466	283,631	-0,065	-0,085
-678,451	320,573	-0,029	-0,041
-677,437	-200,000	-0,007	-0,092
-676,422	431,235	0,037	0,059
-675,408	-200,000	-0,004	0,096
-674,393	-105,177	0,092	0,015
-673,378	65,848	-0,066	-0,049
-672,364	-200,000	-0,010	-0,083
-671,349	28,927	-0,051	-0,032
-670,335	800,000	0,010	-0,022
-669,320	-145,325	0,057	0,004
-668,305	191,497	0,030	0,033
-667,291	-180,441	0,151	-0,002
-666,276	-200,000	-0,021	-0,131
-665,262	800,000	-0,038	-0,095
-664,247	-200,000	-0,009	-0,077
-663,232	276,655	0,054	0,070
-662,218	121,292	-0,023	0,021
-661,203	484,058	0,017	-0,028
-660,189	-79,890	0,030	0,007
-659,174	-200,000	-0,034	-0,156
-658,159	800,000	-0,042	-0,119
-657,145	-200,000	-0,017	-0,069
-656,130	53,912	-0,057	-0,040
-655,116	227,253	0,073	-0,087
-654,101	-120,421	0,050	-0,006
-653,086	115,905	-0,063	-0,056
-652,072	692,760	0,015	0,029
-651,057	800,000	-0,039	-0,101
-650,043	625,409	-0,016	-0,030
-649,028	202,925	0,017	-0,019
-648,014	-25,442	0,091	0,039
-646,999	-200,000	-0,011	0,057
-645,984	522,698	0,008	-0,014
-644,970	68,602	-0,162	-0,122
-643,955	800,000	0,052	-0,127
-642,941	289,232	-0,012	-0,017
-641,926	-68,415	-0,006	-0,002
-640,911	-125,654	-0,046	0,005
-639,897	-55,951	-0,064	-0,021
-638,882	432,156	-0,014	-0,022
-637,868	-200,000	-0,005	-0,121
-636,853	-200,000	0,002	-0,229
-635,838	332,374	0,044	-0,062
-634,824	135,345	-0,033	0,031
-633,809	370,692	-0,107	0,159
-632,795	-200,000	-0,009	0,130
-631,780	800,000	-0,019	-0,062
-630,765	-200,000	0,000	0,102
-629,751	-200,000	-0,037	-0,201
-628,736	-177,961	-0,090	0,002
-627,722	203,969	0,069	-0,078
-626,707	296,714	-0,047	-0,064
-625,692	86,857	-0,081	0,065
-624,678	800,000	-0,022	0,046
-623,663	-20,459	-0,153	-0,069
-622,649	-200,000	-0,006	0,054
-621,634	-111,094	-0,073	-0,011
-620,619	-200,000	-0,022	-0,103
-619,605	-131,140	0,079	0,008
-618,590	-200,000	0,032	0,148
-617,576	-200,000	0,018	0,153
-616,561	343,365	0,072	-0,103
-615,546	800,000	-0,025	-0,060
-614,532	416,520	-0,089	-0,140
-613,517	22,057	-0,033	-0,019
-612,503	-90,658	-0,158	0,033
-611,488	352,770	0,070	0,102
-610,474	180,593	0,015	0,016
-609,459	42,334	0,078	0,052
-608,444	-200,000	-0,011	-0,046
-607,430	-151,542	0,032	0,002
-606,415	-60,732	-0,086	-0,026
-605,401	220,710	-0,102	0,120
-604,386	195,632	-0,019	-0,021
-603,371	93,036	0,071	-0,059
-602,357	-85,958	-0,048	0,011
-601,342	-200,000	0,011	0,036
-600,328	379,178	-0,043	-0,064
-599,313	-66,024	-0,136	0,039
-598,298	460,315	0,060	0,098
-597,284	-163,824	0,170	-0,006
-596,269	796,836	-0,031	0,062
-595,255	187,582	-0,017	0,019
-594,240	-200,000	0,007	0,024
-593,225	-154,001	0,042	0,002
-592,211	-47,284	-0,160	-0,057
-591,196	69,104	-0,010	0,007
-590,182	-200,000	0,009	0,063
-589,167	333,809	0,051	0,073
-588,152	-200,000	0,030	0,112
-587,138	35,669	0,184	-0,118
-586,123	800,000	-0,033	-0,098
-585,109	28,768	-0,140	-0,086
-584,094	800,000	0,035	-0,100
-583,079	-200,000	-0,057	0,206
-582,065	16,521	-0,058	0,033
-581,050	330,556	-0,084	-0,118
-580,036	-11,099	0,041	-0,020
-579,021	-90,315	0,048	-0,010
-578,006	-131,302	-0,062	0,006
-576,992	204,182	-0,138	-0,156
-575,977	-200,000	0,048	-0,202
-574,963	1,942	0,040	0,021
-573,948	-128,450	-0,050	-0,005
-572,934	-200,000	0,002	-0,052
-571,919	-200,000	-0,014	0,141
-570,904	-83,590	-0,107	-0,025
-569,890	-200,000	0,002	-0,068
-568,875	800,000	-0,026	0,070
-567,861	227,762	0,003	0,003
-566,846	800,000	-0,023	0,059
-565,831	-168,233	0,067	0,002
-564,817	800,000	-0,022	-0,065
-563,802	-55,634	-0,070	-0,023
-562,788	625,885	0,058	-0,107
-561,773	310,002	-0,074	-0,101
-560,758	160,586	0,113	0,115
-559,744	288,138	0,082	0,109
-558,729	-38,636	-0,051	0,020
-557,715	-200,000	0,009	-0,112
-556,700	96,699	0,095	-0,079
-555,685	-52,125	-0,078	-0,026
-554,671	800,000	0,037	-0,080
-553,656	-16,303	0,130	0,060
-552,642	-200,000	0,008	0,065
-551,627	800,000	0,023	-0,059
-550,612	-200,000	-0,010	-0,137
-549,598	800,000	-0,053	-0,135
-548,583	86,553	0,133	-0,107
-547,569	137,508	0,020	0,019
-546,554	800,000	0,062	0,143
-545,539	410,619	-0,024	0,038
-544,525	-69,153	-0,110	-0,031
-543,510	-63,086	-0,040	0,012
-542,496	800,000	0,043	-0,117
-541,481	-114,433	0,079	-0,011
-540,466	-116,136	-0,185	-0,025
-539,452	-200,000	-0,002	-0,008
-538,437	22,081	0,085	-0,051
-537,423	-49,171	-0,077	0,027
-536,408	800,000	0,066	0,160
-535,393	240,350	-0,098	-0,119
-534,379	-78,251	0,037	-0,009
-533,364	-34,384	0,216	0,086
-532,350	800,000	-0,040	0,084
-531,335	-59,941	0,115	0,036
-530,321	626,521	-0,071	-0,132
-529,306	132,962	0,052	-0,049
-528,291	457,534	0,078	-0,127
-527,277	448,870	-0,051	-0,082
-526,262	-26,337	-0,037	0,016
-525,248	-132,486	0,150	-0,014
-524,233	-67,367	-0,142	-0,040
-523,218	-200,000	0,033	0,108
-522,204	800,000	0,031	0,063
-521,189	-109,838	-0,031	-0,005
-520,175	800,000	-0,013	-0,032
-519,160	-200,000	0,023	-0,150
-518,145	110,270	0,070	0,062
-517,131	800,000	0,023	-0,072
-516,116	44,314	0,058	-0,039
-515,102	-200,000	0,026	-0,203
-514,087	-12,577	0,041	-0,019
-513,072	99,588	-0,073	-0,062
-512,058	-7,149	-0,009	-0,004
-511,043	374,210	0,082	0,122
-510,029	-1,734	-0,087	0,045
-509,014	670,649	-0,012	0,023
-507,999	589,144	0,019	0,034
-506,985	-200,000	0,007	0,067
-505,970	-200,000	-0,015	-0,081
-504,956	-200,000	-0,021	-0,150
-503,941	55,882	0,124	0,088
-502,926	450,538	-0,058	0,093
-501,912	-42,082	-0,061	-0,023
-500,897	-200,000	-0,009	0,073
-499,883	131,988	-0,027	-0,025
-498,868	38,724	-0,106	-0,069
-497,853	800,000	-0,023	-0,067
-496,839	-136,713	-0,140	-0,012
-495,824	-88,091	0,092	0,020
-494,810	139,647	0,157	0,151
-493,795	-200,000	-0,020	0,106
-492,781	226,106	0,029	-0,034
-491,766	-2,883	-0,096	-0,049
-490,751	-133,786	0,195	0,017
-489,737	-200,000	-0,017	-0,098
-488,722	800,000	0,013	0,039
-487,708	800,000	0,042	0,115
-486,693	-156,301	0,041	0,002
-485,678	800,000	0,038	-0,096
-484,664	21,723	0,074	-0,044
-483,649	-86,939	0,142	0,031
-482,635	-143,966	-0,170	0,011
-481,620	-200,000	-0,004	-0,112
-480,605	-200,000	0,012	0,046
-479,591	800,000	0,033	0,093
-478,576	-43,200	-0,156	0,057
-477,562	800,000	-0,018	0,042
-476,547	800,000	-0,046	-0,107
-475,532	-162,924	0,043	0,002
-474,518	38,369	-0,169	-0,109
-473,503	-108,451	-0,161	0,025
-472,489	612,556	0,053	-0,097
-471,474	109,020	-0,097	0,084
-470,459	800,000	0,045	0,099
-469,445	-200,000	0,002	-0,015
-468,430	316,640	-0,067	-0,092
-467,416	-200,000	-0,028	0,148
-466,401	145,912	0,079	0,077
-465,386	109,838	-0,030	-0,026
-464,372	-200,000	0,013	0,075
-463,357	64,474	0,045	-0,033
-462,343	96,857	0,008	-0,007
-461,328	800,000	-0,050	-0,108
-460,313	-91,190	0,111	0,023
-459,299	-200,000	0,000	-0,069
-458,284	-133,965	0,077	0,007
-457,270	-200,000	0,010	-0,046
-456,255	-69,160	0,067	0,019
-455,241	720,558	-0,031	0,061
-454,226	-14,722	-0,047	0,022
-453,211	-200,000	0,007	-0,072
-452,197	-200,000	0,006	-0,079
-451,182	-109,946	0,092	0,014
-450,168	-53,178	-0,162	-0,054
-449,153	111,846	0,098	-0,086
-448,138	-44,297	-0,106	-0,038
-447,124	-43,753	-0,080	0,029
-446,109	-80,987	0,004	0,001
-445,095	29,462	0,068	-0,042
-444,080	367,069	0,085	0,126
-443,065	-61,924	-0,065	-0,020
-442,051	-200,000	0,000	0,073
-441,036	158,495	0,112	-0,113
-440,022	800,000	-0,017	0,039
-439,007	-200,000	-0,008	0,056
-437,992	-84,920	-0,070	0,016
-436,978	82,604	0,040	0,031
-435,963	-173,917	-0,040	-0,001
-434,949	-200,000	0,022	-0,089
-433,934	63,763	0,053	0,039
-432,919	-71,468	-0,062	0,017
-431,905	69,112	0,079	0,059
-430,890	59,096	0,052	0,037
-429,876	146,342	0,060	0,059
-428,861	320,566	0,076	0,105
-427,846	-147,170	-0,058	-0,004
-426,832	342,880	-0,009	0,012
-425,817	800,000	0,025	-0,060
-424,803	-22,573	0,063	-0,028
-423,788	-200,000	0,010	0,066
-422,773	-200,000	-0,030	0,101
-421,759	73,967	0,008	-0,006
-420,744	-200,000	-0,012	0,164
-419,730	96,744	-0,081	-0,067
-418,715	507,699	0,053	-0,090
-417,701	800,000	0,047	-0,115
-416,686	-200,000	-0,023	0,147
-415,671	800,000	0,010	0,022
-414,657	112,063	-0,061	0,054
-413,642	76,682	-0,169	0,130
-412,628	362,974	0,070	-0,103
-411,613	4,306	-0,081	0,043
-410,598	79,022	0,037	-0,029
-409,584	800,000	0,060	-0,150
-408,569	-200,000	0,008	0,103
-407,555	-149,242	0,047	-0,003
-406,540	290,791	-0,071	0,094
-405,525	-135,446	-0,143	-0,012
-404,511	-200,000	-0,013	-0,095
-403,496	10,771	0,100	0,055
-402,482	-200,000	-0,067	0,217
-401,467	294,397	0,113	0,151
-400,452	-79,583	0,034	-0,008
-399,438	139,831	0,083	0,080
-398,423	800,000	-0,064	-0,161
-397,409	800,000	-0,033	-0,088
-396,394	-86,852	0,077	-0,017
-395,379	-200,000	0,009	0,137
-394,365	-136,575	0,124	-0,010
-393,350	800,000	0,007	-0,018
-392,336	800,000	-0,029	0,089
-391,321	-21,267	0,055	0,024
-390,306	800,000	-0,045	-0,100
-389,292	244,798	0,086	-0,105
-388,277	-200,000	0,007	0,063
-387,263	694,570	0,010	0,018
-386,248	-68,062	0,075	-0,021
-385,233	-45,148	-0,063	0,022
-384,219	-200,000	0,030	-0,116
-383,204	-200,000	-0,022	-0,129
-382,190	-91,714	0,078	0,016
-381,175	-80,212	-0,026	0,006
-380,160	-191,746	0,125	-0,001
-379,146	-60,951	0,064	0,019
-378,131	-200,000	0,038	0,120
-377,117	-48,542	-0,173	0,060
-376,102	-200,000	0,007	-0,028
-375,088	-200,000	0,017	-0,085
-374,073	800,000	-0,014	-0,040
-373,058	700,032	-0,030	0,057
-372,044	-200,000	-0,000	0,076
-371,029	-38,043	-0,102	0,039
-370,015	281,588	0,079	0,103
-369,000	-66,913	0,110	0,031
-367,985	5,636	-0,036	-0,019
-366,971	142,953	-0,052	0,050
-365,956	-58,609	0,036	0,011
-364,942	138,075	0,080	-0,076
-363,927	-200,000	-0,019	0,063
-362,912	41,147	-0,018	-0,012
-361,898	-133,137	-0,088	0,008
-360,883	69,321	0,098	-0,073
-359,869	-20,151	-0,042	-0,019
-358,854	27,531	-0,072	-0,044
-357,839	-149,041	0,040	-0,002
-356,825	204,860	0,035	-0,039
-355,810	366,607	-0,010	-0,015
-354,796	-200,000	0,005	0,028
-353,781	-200,000	0,018	-0,138
-352,766	-88,539	0,033	0,007
-351,752	-83,670	0,108	-0,025
-350,737	475,849	0,066	0,108
-349,723	800,000	-0,061	0,164
-348,708	-176,264	-0,036	0,001
-347,693	-200,000	-0,008	0,062
-346,679	-200,000	0,019	0,098
-345,664	526,728	0,011	-0,018
-344,650	-122,769	-0,217	0,025
-343,635	-200,000	0,023	0,095
-342,620	800,000	0,014	0,042
-341,606	-38,975	0,032	0,012
-340,591	488,707	0,066	-0,109
-339,577	-28,572	0,085	-0,035
-338,562	67,083	0,096	-0,070
-337,548	97,941	0,066	-0,055
-336,533	800,000	0,057	0,157
-335,518	137,605	0,089	0,085
-334,504	-200,000	-0,017	0,054
-333,489	40,563	-0,051	-0,033
-332,475	199,228	-0,081	-0,090
-331,460	-101,693	-0,122	-0,021
-330,445	304,661	0,139	0,187
-329,431	-136,256	-0,044	-0,004
-328,416	66,100	0,056	0,041
-327,402	285,863	0,019	0,025
-326,387	800,000	0,034	-0,074
-325,372	-200,000	-0,017	-0,121
-324,358	95,494	-0,030	0,025
-323,343	-200,000	0,025	0,092
-322,329	-161,134	0,111	0,004
-321,314	-15,593	-0,045	0,021
-320,299	96,753	0,053	-0,044
-319,285	-137,486	-0,078	0,006
-318,270	479,276	0,038	-0,062
-317,256	399,763	-0,112	-0,171
-316,241	-91,831	-0,039	-0,008
-315,226	-200,000	-0,006	0,041
-314,212	-93,844	0,045	0,009
-313,197	116,563	-0,097	-0,086
-312,183	91,311	0,012	-0,010
-311,168	253,500	-0,115	0,143
-310,153	-0,497	0,036	0,018
-309,139	800,000	0,055	0,111
-308,124	-200,000	-0,016	0,175
-307,110	-200,000	-0,029	0,118
-306,095	397,785	0,049	0,075
-305,080	-200,000	-0,030	0,129
-304,066	800,000	-0,011	-0,034
-303,051	606,725	0,091	-0,165
-302,037	-200,000	0,008	-0,206
-301,022	82,316	-0,057	-0,045
-300,008	-200,000	0,006	-0,081
-298,993	-200,000	-0,013	0,096
-297,978	198,724	-0,059	0,065
-296,964	9,703	-0,089	0,049
-295,949	800,000	-0,050	-0,101
-294,935	-109,742	-0,063	-0,010
-293,920	15,159	0,136	0,077
-292,905	-3,936	-0,041	0,021
-291,891	151,030	-0,115	0,113
-290,876	-200,000	0,033	0,131
-289,862	30,474	-0,095	-0,059
-288,847	295,774	0,035	-0,047
-287,832	491,311	-0,031	-0,051
-286,818	-200,000	-0,025	0,098
-285,803	797,298	0,055	-0,109
-284,789	800,000	0,008	0,026
-283,774	800,000	0,038	0,115
-282,759	-140,065	-0,101	-0,008
-281,745	-37,532	-0,082	0,031
-280,730	-200,000	-0,040	-0,147
-279,716	-141,041	0,117	0,009
-278,701	538,107	0,074	-0,128
-277,686	82,410	-0,055	-0,043
-276,672	31,130	0,082	0,051
-275,657	510,001	-0,057	-0,097
-274,643	11,259	-0,156	-0,086
-273,628	-200,000	-0,006	0,063
-272,613	-97,223	0,093	0,017
-271,599	-67,898	0,090	-0,025
-270,584	140,159	0,036	0,035
-269,570	-55,686	0,083	-0,027
-268,555	252,431	-0,044	0,054
-267,540	-200,000	-0,062	0,000
-266,526	-200,000	-0,007	0,060
-265,511	-44,386	0,182	-0,065
-264,497	-184,485	-0,075	0,001
-263,482	-200,000	-0,023	0,100
-262,467	199,000	0,099	0,109
-261,453	229,143	-0,061	0,072
-260,438	161,454	-0,049	0,049
-259,424	-119,433	-0,161	-0,020
-258,409	-200,000	-0,004	0,101
-257,395	-11,963	-0,023	0,011
-256,380	-113,983	0,214	0,030
-255,365	-109,884	-0,007	0,001
-254,351	-161,179	0,111	0,004
-253,336	-200,000	-0,001	0,021
-252,322	282,428	0,014	-0,018
-251,307	-42,130	-0,033	-0,012
-250,292	-21,404	-0,096	-0,042
-249,278	-53,486	0,143	0,047
-248,263	800,000	-0,026	0,062
-247,249	490,880	0,009	-0,015
-246,234	-200,000	0,005	-0,070
-245,219	56,524	0,017	-0,012
-244,205	105,967	-0,019	0,017
-243,190	800,000	0,055	0,152
-242,176	800,000	0,031	0,093
-241,161	-175,626	-0,080	0,002
-240,146	-31,075	-0,083	0,034
-239,132	-95,340	0,068	0,013
-238,117	-200,000	0,009	0,038
-237,103	-200,000	-0,001	0,014
-236,088	800,000	0,030	-0,067
-235,073	101,666	-0,056	0,047
-234,059	303,558	-0,061	0,082
-233,044	382,017	-0,074	0,110
-232,030	538,031	0,046	0,079
-231,015	-97,223	0,068	0,013
-230,000	-52,052	-0,105	-0,035
-228,986	800,000	-0,032	-0,091
-227,971	-75,641	0,161	-0,041
-226,957	-200,000	-0,001	0,059
-225,942	214,397	0,127	0,145
-224,927	75,543	-0,084	-0,064
-223,913	-200,000	-0,031	-0,146
-222,898	190,072	-0,048	-0,052
-221,884	7,887	0,018	-0,010
-220,869	-143,447	0,084	-0,006
-219,855	478,947	-0,027	0,044
-218,840	209,215	0,057	-0,065
-217,825	175,586	-0,037	0,039
-216,811	-200,000	-0,004	-0,036
-215,796	800,000	-0,049	-0,152
-214,782	-44,303	0,073	0,026
-213,767	-106,775	-0,076	0,012
-212,752	203,079	0,105	-0,117
-211,738	-40,821	0,070	-0,026
-210,723	-174,135	-0,162	-0,003
-209,709	50,766	-0,083	-0,057
-208,694	800,000	-0,032	-0,069
-207,679	40,766	-0,036	-0,024
-206,665	-200,000	-0,012	-0,177
-205,650	289,871	0,030	-0,040
-204,636	654,017	0,028	0,053
-203,621	256,453	-0,057	0,071
-202,606	-200,000	-0,015	0,075
-201,592	400,414	-0,050	-0,076
-200,577	-200,000	0,052	-0,178
-199,563	85,391	-0,127	-0,101
-198,548	-200,000	0,021	0,179
-197,533	-200,000	0,003	-0,019
-196,519	-182,116	0,173	0,002
-195,504	75,159	-0,113	0,086
-194,490	-102,891	-0,044	0,007
-193,475	-85,701	-0,026	-0,006
-192,460	-200,000	0,002	-0,021
-191,446	-19,239	0,047	0,021
-190,431	198,491	0,044	0,048
-189,417	-200,000	-0,017	-0,204
-188,402	800,000	0,040	0,114
-187,387	-200,000	0,003	0,014
-186,373	163,737	-0,010	-0,010
-185,358	-200,000	-0,002	-0,029
-184,344	800,000	-0,031	0,095
-183,329	-200,000	-0,005	0,116
-182,315	445,009	0,035	0,056
-181,300	-200,000	0,004	-0,141
-180,285	323,192	-0,008	0,011
-179,271	-200,000	0,020	0,091
-178,256	29,562	-0,118	-0,072
-177,242	800,000	-0,015	-0,034
-176,227	42,791	0,028	0,018
-175,212	-76,442	0,104	-0,026
-174,198	343,883	0,092	-0,131
-173,183	-21,813	0,031	-0,014
-172,169	-200,000	-0,003	-0,158
-171,154	398,022	-0,102	-0,154
-170,139	253,080	0,032	0,040
-169,125	335,940	-0,134	0,188
-168,110	800,000	0,075	0,192
-167,096	198,300	0,061	0,067
-166,081	37,832	0,067	-0,043
-165,066	-200,000	0,014	-0,074
-164,052	-18,769	0,027	-0,012
-163,037	104,995	0,060	-0,051
-162,023	-139,263	-0,069	-0,005
-161,008	-144,026	0,060	-0,004
-159,993	800,000	-0,044	0,096
-158,979	488,723	-0,038	-0,063
-157,964	-61,641	-0,094	-0,028
-156,950	-74,928	0,148	0,038
-155,935	147,143	-0,058	0,056
-154,920	800,000	-0,022	-0,052
-153,906	308,324	0,089	0,120
-152,891	-89,660	-0,052	0,011
-151,877	-47,906	0,192	-0,067
-150,862	211,992	-0,098	0,111
-149,847	-21,114	-0,050	0,022
-148,833	-200,000	-0,016	0,058
-147,818	-36,226	-0,054	0,021
-146,804	303,898	-0,083	0,111
-145,789	-200,000	0,006	0,045
-144,775	-200,000	-0,026	-0,086
-143,760	800,000	0,043	-0,106
-142,745	-152,379	-0,204	0,010
-141,731	-200,000	-0,001	-0,024
-140,716	-108,116	-0,067	-0,010
-139,702	-200,000	0,013	-0,165
-138,687	-139,774	0,155	0,012
-137,672	514,256	-0,040	-0,068
-136,658	-200,000	-0,004	-0,043
-135,643	800,000	-0,035	-0,101
-134,629	128,170	0,093	0,085
-133,614	263,441	0,067	-0,084
-132,599	-36,226	-0,011	-0,004
-131,585	335,611	0,052	-0,072
-130,570	177,569	-0,031	-0,033
-129,556	275,983	0,114	-0,145
-128,541	800,000	0,004	-0,007
-127,526	-100,143	-0,057	0,010
-126,512	1,289	0,148	-0,076
-125,497	800,000	-0,044	-0,112
-124,483	68,810	-0,091	0,067
-123,468	150,044	0,057	0,055
-122,453	155,492	-0,022	0,022
-121,439	800,000	-0,064	-0,175
-120,424	147,405	-0,050	0,049
-119,410	-115,602	-0,086	0,011
-118,395	-200,000	0,052	0,173
-117,380	-28,814	0,182	0,075
-116,366	-41,928	-0,090	0,033
-115,351	-49,814	-0,051	0,017
-114,337	97,785	-0,057	0,047
-113,322	-43,723	0,060	0,022
-112,307	40,855	-0,006	-0,004
-111,293	312,549	-0,041	-0,055
-110,278	800,000	0,006	-0,019
-109,264	185,330	-0,107	0,114
-108,249	-28,270	0,172	0,071
-107,234	141,531	0,030	-0,029
-106,220	-200,000	0,029	0,096
-105,205	46,118	-0,017	-0,011
-104,191	-41,261	0,132	-0,049
-103,176	-23,783	0,077	0,033
-102,162	-200,000	0,020	-0,112
-101,147	-30,373	-0,041	-0,017
-100,132	230,655	-0,108	-0,127
-99,118	-115,550	0,168	0,022
-98,103	311,023	0,017	-0,023
-97,089	-85,436	0,155	-0,034
-96,074	800,000	-0,035	0,086
-95,059	283,853	0,061	0,079
-94,045	1,385	0,062	0,032
-93,030	800,000	0,024	-0,056
-92,016	-9,604	-0,190	-0,091
-91,001	-6,845	0,110	-0,054
-89,986	-31,349	0,102	0,041
-88,972	280,835	-0,022	0,029
-87,957	52,053	0,262	-0,179
-86,943	278,605	-0,059	-0,075
-85,928	-167,654	0,109	-0,003
-84,913	800,000	-0,031	-0,063
-83,899	420,795	-0,079	0,122
-82,884	-200,000	-0,021	0,103
-81,870	-69,083	-0,069	0,019
-80,855	-183,567	-0,061	-0,001
-79,840	131,209	-0,058	-0,053
-78,826	-127,128	0,072	-0,007
-77,811	800,000	-0,033	0,085
-76,797	-200,000	-0,002	0,109
-75,782	-15,575	0,086	0,039
-74,767	-200,000	0,005	0,044
-73,753	369,531	-0,060	-0,087
-72,738	-200,000	-0,009	-0,067
-71,724	400,154	-0,040	-0,060
-70,709	800,000	0,042	-0,113
-69,694	-200,000	-0,129	0,000
-68,680	-73,069	0,110	-0,029
-67,665	-52,934	-0,140	0,046
-66,651	6,708	-0,053	0,028
-65,636	421,453	-0,037	-0,057
-64,622	800,000	-0,047	-0,101
-63,607	249,378	-0,048	-0,058
-62,592	262,285	-0,045	-0,056
-61,578	542,307	0,065	0,111
-60,563	-94,213	-0,078	-0,015
-59,549	800,000	-0,058	0,147
-58,534	15,388	-2,286	-1,282
-57,519	-200,000	0,030	-0,765
-56,505	-200,000	-1,261	-5,183
-55,490	64,226	0,943	0,679
-54,476	800,000	5,362	12,192
-53,461	-200,000	18,883	315,452
-52,446	800,000	741,173	2313,365
-51,432	547,371	1654,227	2846,223
-50,417	109,644	1636,767	1404,461
-49,403	73,242	1287,238	963,044
-48,388	29,790	1028,991	626,053
-47,373	19,626	992,048	569,993
-46,359	17,113	979,549	554,545
-45,344	13,783	975,595	541,370
-44,330	14,183	973,917	541,728
-43,315	13,525	972,142	538,565
-42,300	13,412	971,054	537,573
-41,286	13,414	970,360	537,176
-40,271	13,443	969,216	536,613
-39,257	13,436	968,522	536,185
-38,242	13,438	967,498	535,603
-37,227	13,413	966,886	535,163
-36,213	13,462	965,812	534,705
-35,198	13,410	965,039	534,089
-34,184	13,437	964,227	533,706
-33,169	13,414	963,218	533,053
-32,154	13,478	962,295	532,728
-31,140	13,413	961,651	532,137
-30,125	13,464	960,799	531,811
-29,111	13,431	959,805	531,134
-28,096	13,411	959,366	530,806
-27,082	13,357	958,806	530,299
-26,067	13,449	957,824	530,031
-25,052	13,465	956,979	529,594
-24,038	13,432	956,631	529,275
-23,023	13,424	955,894	528,820
-22,009	13,422	955,340	528,485
-20,994	13,501	954,390	528,193
-19,979	13,447	954,040	527,804
-18,965	13,498	953,181	527,472
-17,950	13,501	952,570	527,122
-16,936	13,376	952,150	526,469
-15,921	13,319	951,496	525,906
-14,906	13,370	950,593	525,548
-13,892	13,331	950,157	525,161
-12,877	13,369	949,231	524,749
-11,863	13,277	948,753	524,173
-10,848	13,300	948,179	523,906
-9,833	13,374	947,758	523,890
-8,819	13,365	947,079	523,464
-7,804	13,363	946,263	522,986
-6,790	13,340	945,863	522,672
-5,775	13,372	945,286	522,433
-4,760	13,425	944,549	522,175
-3,746	13,318	944,141	521,588
-2,731	13,173	943,324	520,655
-1,717	13,169	942,494	520,165
-0,702	13,150	942,006	519,815
0,313	12,936	941,234	519,496
1,327	16,502	939,150	529,555
2,342	25,686	789,823	469,537
3,356	21,838	443,995	258,235
4,371	-7,661	296,719	142,983
5,386	-11,556	278,539	130,505
6,400	-12,700	272,813	126,744
7,415	-12,779	270,496	125,583
8,429	-12,985	269,031	124,702
9,444	-12,962	268,187	124,321
10,459	-12,944	267,509	124,013
11,473	-12,950	266,817	123,675
12,488	-13,034	266,225	123,313
13,502	-13,520	265,839	122,682
14,517	-13,120	265,258	122,766
15,531	-13,033	264,898	122,666
16,546	-13,038	264,479	122,457
17,561	-13,050	264,103	122,261
18,575	-13,125	263,822	122,053
19,590	-13,072	263,460	121,922
20,604	-12,898	263,228	121,960
21,619	-13,105	262,916	121,619
22,634	-13,321	262,516	121,230
23,648	-13,152	262,187	121,218
24,663	-13,026	261,833	121,157
25,677	-13,298	261,689	120,835
26,692	-13,256	261,422	120,739
27,707	-12,976	261,000	120,783
28,721	-13,092	260,852	120,601
29,736	-13,283	260,577	120,292
30,750	-13,244	260,247	120,164
31,765	-13,300	260,063	120,019
32,780	-13,113	259,750	120,029
33,794	-13,192	259,526	119,845
34,809	-13,222	259,449	119,773
35,823	-13,235	259,136	119,606
36,838	-13,471	258,820	119,241
37,853	-13,261	258,600	119,315
38,867	-13,291	258,329	119,152
39,882	-13,488	258,173	118,896
40,896	-13,300	257,826	118,892
41,911	-13,269	257,697	118,848
42,926	-13,329	257,456	118,674
43,940	-13,267	257,204	118,601
44,955	-13,247	256,868	118,453
45,969	-13,326	256,564	118,234
46,984	-13,558	256,403	117,946
47,999	-13,687	256,219	117,738
49,013	-13,886	255,814	117,369
50,028	-14,107	255,583	117,060
51,042	-14,158	255,311	116,880
52,057	-14,064	255,155	116,880
53,071	-14,112	255,035	116,773
54,086	-13,948	254,738	116,768
55,101	-13,766	254,710	116,904
56,115	-13,683	254,559	116,896
57,130	-13,294	254,485	117,188
58,144	-12,913	254,081	117,321
59,159	-12,970	253,899	117,178
60,174	-13,204	253,985	117,004
61,188	-13,155	253,595	116,857
62,203	-13,035	253,255	116,793
63,217	-13,009	253,097	116,732
64,232	-13,235	252,832	116,405
65,247	-13,171	252,587	116,337
66,261	-12,985	252,476	116,435
67,276	-13,317	252,154	115,991
68,290	-13,431	251,794	115,718
69,305	-13,747	251,670	115,380
70,320	-13,747	251,583	115,329
71,334	-13,523	251,409	115,431
72,349	-13,046	251,261	115,760
73,363	-13,158	251,167	115,611
74,378	-13,001	250,752	115,544
75,393	-13,091	250,614	115,394
76,407	-13,245	250,436	115,170
77,422	-13,222	250,094	115,022
78,436	-13,174	249,963	114,992
79,451	-13,065	249,585	114,901
80,466	-13,230	249,581	114,748
81,480	-13,321	249,183	114,478
82,495	-13,435	249,053	114,312
83,509	-13,460	248,899	114,210
84,524	-13,260	248,581	114,222
85,539	-13,575	248,442	113,883
86,553	-13,298	248,076	113,938
87,568	-13,384	248,029	113,834
88,582	-13,281	247,826	113,817
89,597	-13,367	247,680	113,668
90,611	-13,345	247,501	113,594
91,626	-13,106	247,391	113,734
92,641	-13,011	247,196	113,714
93,655	-13,100	246,937	113,510
94,670	-13,153	246,813	113,399
95,684	-13,285	246,629	113,194
96,699	-13,208	246,310	113,101
97,714	-13,417	246,325	112,923
98,728	-13,649	245,882	112,517
99,743	-13,432	245,726	112,617
100,757	-13,606	245,444	112,332
101,772	-13,532	245,365	112,348
102,787	-13,416	245,065	112,296
103,801	-13,479	245,051	112,228
104,816	-13,332	244,851	112,248
105,830	-13,395	244,738	112,134
106,845	-13,238	244,416	112,107
107,860	-13,195	244,381	112,116
108,874	-13,278	244,071	111,895
109,889	-13,273	243,920	111,821
110,903	-13,216	243,536	111,681
111,918	-13,349	243,375	111,487
112,933	-13,280	243,268	111,485
113,947	-13,190	243,227	111,531
114,962	-13,201	242,917	111,370
115,976	-13,443	242,818	111,116
116,991	-13,250	242,669	111,196
118,006	-13,294	242,479	111,063
119,020	-13,373	242,277	110,896
120,035	-13,065	242,100	111,058
121,049	-13,326	242,182	110,872
122,064	-13,097	241,813	110,880
123,079	-13,068	241,536	110,766
124,093	-13,441	241,222	110,308
125,108	-13,362	241,025	110,273
126,122	-13,641	240,909	109,982
127,137	-13,808	240,815	109,794
128,151	-13,613	240,587	109,838
129,166	-13,443	240,521	109,937
130,181	-13,626	240,272	109,665
131,195	-13,483	239,861	109,583
132,210	-13,470	239,933	109,617
133,224	-13,285	239,631	109,619
134,239	-13,263	239,609	109,617
135,254	-13,421	239,407	109,387
136,268	-13,418	239,285	109,324
137,283	-13,669	238,868	108,921
138,297	-13,749	238,744	108,790
139,312	-13,971	238,472	108,477
140,327	-13,450	238,410	108,860
141,341	-12,781	238,316	109,346
142,356	-12,803	238,128	109,232
143,370	-12,961	238,022	109,046
144,385	-13,134	237,914	108,848
145,400	-12,941	237,688	108,890
146,414	-12,945	237,520	108,800
147,429	-12,976	237,268	108,651
148,443	-12,929	237,169	108,633
149,458	-12,926	237,041	108,567
150,473	-12,984	236,874	108,435
151,487	-13,257	236,579	108,072
152,502	-13,127	236,414	108,090
153,516	-12,957	236,246	108,139
154,531	-12,941	236,098	108,075
155,546	-13,131	235,871	107,810
156,560	-13,109	235,744	107,760
157,575	-13,102	235,465	107,628
158,589	-12,855	235,283	107,732
159,604	-12,822	235,275	107,745
160,619	-12,716	235,067	107,724
161,633	-12,917	235,016	107,532
162,648	-13,041	234,897	107,369
163,662	-12,907	234,735	107,392
164,677	-13,080	234,513	107,144
165,692	-13,046	234,274	107,052
166,706	-12,942	234,269	107,122
167,721	-12,981	234,125	107,016
168,735	-12,939	233,976	106,971
169,750	-12,925	233,695	106,845
170,764	-13,025	233,532	106,682
171,779	-12,861	233,393	106,738
172,794	-12,909	233,347	106,669
173,808	-12,885	232,968	106,506
174,823	-13,356	232,831	106,064
175,837	-13,572	232,467	105,719
176,852	-13,339	232,596	105,951
177,867	-13,014	232,505	106,155
178,881	-12,972	232,267	106,070
179,896	-12,676	232,094	106,212
180,910	-12,732	231,975	106,105
181,925	-12,870	231,817	105,916
182,940	-13,017	231,580	105,683
183,954	-12,887	231,538	105,756
184,969	-12,725	231,253	105,742
185,983	-12,553	231,262	105,871
186,998	-12,818	231,022	105,545
188,013	-12,730	230,801	105,503
189,027	-12,770	230,734	105,432
190,042	-12,853	230,554	105,276
191,056	-12,709	230,382	105,300
192,071	-12,821	230,141	105,093
193,086	-12,817	230,103	105,070
194,100	-12,547	229,866	105,161
195,115	-13,331	229,397	104,332
196,129	-13,640	229,412	104,092
197,144	-7,765	231,219	109,466
198,159	-2,214	233,017	114,641
199,173	1,854	234,213	118,402
200,188	2,748	234,310	119,140
201,202	2,462	234,181	118,840
202,217	2,567	233,965	118,802
203,232	2,692	233,937	118,874
204,246	2,973	233,634	118,929
205,261	2,938	233,541	118,844
206,275	3,133	233,465	118,946
207,290	3,089	233,289	118,812
208,304	3,340	233,065	118,882
209,319	3,081	232,855	118,564
210,334	3,192	232,580	118,499
211,348	2,854	232,382	118,126
212,363	2,555	232,090	117,735
213,377	2,182	232,104	117,443
214,392	2,427	231,888	117,513
215,407	2,386	231,805	117,429
216,421	2,520	231,731	117,484
217,436	2,571	231,507	117,400
218,450	1,995	231,358	116,870
219,465	2,175	230,979	116,807
220,480	2,288	230,829	116,807
221,494	2,050	230,879	116,639
222,509	2,292	230,944	116,848
223,523	2,286	230,710	116,714
224,538	2,228	230,399	116,502
225,553	2,337	230,229	116,489
226,567	2,453	230,063	116,483
227,582	2,601	230,072	116,591
228,596	2,701	229,977	116,608
229,611	2,574	229,770	116,397
230,626	2,308	229,444	116,018
231,640	2,465	229,315	116,062
232,655	2,697	229,293	116,218
233,669	2,808	229,175	116,232
234,684	2,850	228,971	116,150
235,699	2,719	228,785	115,946
236,713	2,577	228,533	115,700
237,728	2,480	228,481	115,590
238,742	2,160	228,277	115,233
239,757	2,571	228,156	115,473
240,772	2,281	228,030	115,180
241,786	2,333	227,871	115,129
242,801	2,648	227,799	115,320
243,815	2,846	227,868	115,494
244,830	2,890	227,546	115,354
245,844	2,530	227,358	114,977
246,859	2,541	227,184	114,887
247,874	2,504	227,058	114,785
248,888	2,707	227,013	114,905
249,903	2,492	226,885	114,668
250,917	2,625	226,591	114,610
251,932	2,281	226,486	114,288
252,947	2,208	226,191	114,074
253,961	2,138	226,122	113,976
254,976	2,326	225,970	114,030
255,990	2,602	225,917	114,201
257,005	2,690	225,855	114,225
258,020	2,647	225,669	114,088
259,034	2,522	225,576	113,938
260,049	2,646	225,314	113,888
261,063	2,789	225,089	113,871
262,078	2,957	225,092	113,987
263,093	2,846	225,058	113,877
264,107	2,800	224,791	113,698
265,122	2,731	224,626	113,553
266,136	2,781	224,589	113,561
267,151	2,991	224,317	113,570
268,166	2,482	224,035	113,038
269,180	2,414	223,807	112,863
270,195	2,365	223,726	112,776
271,209	2,220	223,660	112,625
272,224	2,280	223,672	112,666
273,239	2,485	223,515	112,728
274,253	2,360	223,227	112,480
275,268	2,165	223,057	112,240
276,282	2,273	222,813	112,187
277,297	2,188	222,704	112,060
278,312	2,248	222,437	111,960
279,326	2,212	222,508	111,960
280,341	2,388	222,351	112,000
281,355	2,579	222,229	112,069
282,370	2,385	222,277	111,940
283,384	2,388	221,817	111,701
284,399	2,047	221,764	111,413
285,414	2,029	221,625	111,321
286,428	2,502	221,562	111,627
287,443	2,492	221,494	111,575
288,457	2,681	221,246	111,578
289,472	2,539	221,041	111,361
290,487	1,968	220,917	110,871
291,501	1,900	220,665	110,685
292,516	2,032	220,601	110,740
293,530	2,119	220,380	110,682
294,545	2,262	220,372	110,773
295,560	2,527	220,110	110,824
296,574	2,359	220,151	110,712
297,589	2,288	220,039	110,594
298,603	2,325	219,956	110,570
299,618	2,575	219,621	110,573
300,633	2,383	219,727	110,477
301,647	2,465	219,676	110,501
302,662	2,467	219,378	110,343
303,676	2,903	219,024	110,470
304,691	2,631	219,095	110,300
305,706	2,675	218,960	110,254
306,720	2,777	218,813	110,243
307,735	2,576	218,457	109,909
308,749	2,322	218,362	109,668
309,764	2,745	218,281	109,923
310,779	2,826	218,248	109,955
311,793	2,527	218,019	109,615
312,808	2,401	217,903	109,455
313,822	2,591	217,541	109,400
314,837	2,627	217,523	109,408
315,852	2,115	217,352	108,944
316,866	2,515	217,236	109,163
317,881	2,748	217,096	109,250
318,895	2,684	217,033	109,163
319,910	2,338	216,767	108,772
320,925	1,976	216,639	108,439
321,939	1,831	216,368	108,190
322,954	2,016	216,228	108,243
323,968	2,354	216,397	108,559
324,983	2,606	216,336	108,699
325,997	2,871	216,111	108,765
327,012	2,655	216,051	108,571
328,027	2,692	215,796	108,459
329,041	2,917	215,771	108,597
330,056	2,976	215,607	108,547
331,070	2,579	215,241	108,071
332,085	2,474	215,188	107,960
333,100	2,474	215,075	107,894
334,114	2,583	214,994	107,921
335,129	2,589	214,807	107,822
336,143	2,376	214,579	107,547
337,158	2,315	214,497	107,453
338,173	2,200	214,521	107,374
339,187	2,258	214,175	107,233
340,202	1,801	214,054	106,840
341,216	2,418	214,034	107,256
342,231	2,618	213,936	107,338
343,246	2,352	213,689	107,018
344,260	2,491	213,526	107,024
345,275	2,738	213,528	107,189
346,289	2,822	213,340	107,144
347,304	2,640	213,187	106,930
348,319	2,458	213,069	106,734
349,333	2,275	213,083	106,603
350,348	2,346	212,865	106,534
351,362	2,896	212,722	106,838
352,377	2,747	212,709	106,718
353,392	2,704	212,386	106,516
354,406	2,480	212,321	106,317
355,421	198,802	1311,368	1394,710
356,435	159,109	1445,211	1394,665
