DTS Sentinel unit serial number:	SN410029Multiplexer serial number:	ORYXHardware model number:	OX2-SRSoftware version number:	ORYX F/W v4,00 Oryx Data Collector v3.7.2.0data status	okinstallation	B6 Nyhavnadifferential loss correction	single-endedforward channel	channel 2reverse channel	N/Adate	2023/12/08time	15:30:08forward acquisition time	300,00reverse acquisition time	0,00gamma	499,1914k internal	0,3159k external	0,3159temperature offset calibration	1,0000default loss term (dB/km)	0,3820temperature slope calibration	1,0000multiplexer offset coefficient	1,0000multiplexer slope coefficient	1,0000fibre end	0,00T internal ref (°C)	15,08T ext. ref 1 (°C)	-1,46T ext. ref 2 (°C)	-1,46length (m)	temperature (°C)	Stokes	anti-Stokes-744,400	431,796	0,047	-0,075
-743,385	-98,874	-0,189	-0,035
-742,371	-163,194	0,135	0,005
-741,356	-4,144	-0,179	0,091
-740,342	329,650	0,051	0,073
-739,327	-141,120	-0,357	0,027
-738,312	138,609	-0,038	0,037
-737,298	-152,352	-0,441	-0,023
-736,283	-87,008	0,110	-0,024
-735,269	-152,944	-0,296	-0,015
-734,254	310,650	-0,118	0,163
-733,239	-57,778	-0,542	-0,174
-732,225	-200,000	0,044	0,208
-731,210	-99,828	0,106	0,019
-730,196	125,293	-0,008	0,008
-729,181	53,084	-0,078	-0,055
-728,167	72,426	-0,089	-0,068
-727,152	-140,619	-0,123	-0,009
-726,137	77,216	-0,090	-0,070
-725,123	-150,593	0,048	-0,003
-724,108	247,926	-0,074	-0,092
-723,094	-154,385	-0,168	-0,008
-722,079	-61,850	-0,056	0,017
-721,064	-54,591	-0,025	0,008
-720,050	-108,607	-0,019	0,003
-719,035	-63,636	-0,120	-0,036
-718,021	-200,000	-0,002	0,040
-717,006	254,769	-0,043	-0,054
-715,991	181,881	-0,129	-0,140
-714,977	40,572	-0,077	0,051
-713,962	800,000	0,046	-0,107
-712,948	-200,000	-0,006	0,053
-711,933	556,762	-0,009	0,015
-710,918	800,000	-0,026	0,069
-709,904	-200,000	-0,069	-0,226
-708,889	800,000	-0,022	-0,059
-707,875	-7,011	-0,053	-0,027
-706,860	-118,677	-0,043	0,005
-705,845	-200,000	0,004	-0,032
-704,831	-56,531	-0,150	0,049
-703,816	75,949	-0,076	-0,059
-702,802	74,675	0,095	0,074
-701,787	715,293	0,084	0,165
-700,772	95,257	-0,104	-0,087
-699,758	-200,000	0,017	-0,120
-698,743	220,556	0,098	-0,116
-697,729	-200,000	0,027	-0,098
-696,714	800,000	-0,058	0,146
-695,699	-10,800	-0,143	-0,069
-694,685	-15,396	-0,106	-0,050
-693,670	86,502	-0,097	-0,079
-692,656	245,643	0,089	0,111
-691,641	-200,000	0,001	-0,056
-690,627	-10,033	0,023	0,011
-689,612	97,270	-0,151	-0,127
-688,597	27,862	-0,033	-0,020
-687,583	800,000	-0,038	-0,092
-686,568	-36,580	-0,117	0,046
-685,554	-86,992	0,013	-0,003
-684,539	39,787	0,026	0,017
-683,524	800,000	0,086	0,185
-682,510	259,763	0,028	-0,035
-681,495	800,000	-0,061	0,132
-680,481	-95,648	-0,049	0,009
-679,466	-48,504	-0,081	0,029
-678,451	-200,000	-0,015	0,087
-677,437	-200,000	-0,017	0,058
-676,422	-65,655	0,155	0,045
-675,408	-133,977	-0,081	-0,007
-674,393	-103,419	0,041	-0,007
-673,378	124,792	0,024	0,022
-672,364	154,273	0,068	0,068
-671,349	462,344	-0,049	-0,081
-670,335	717,406	-0,057	0,112
-669,320	12,009	0,094	-0,053
-668,305	617,918	-0,069	-0,128
-667,291	-200,000	-0,014	0,105
-666,276	257,724	0,089	-0,113
-665,262	-200,000	0,016	-0,069
-664,247	800,000	0,079	-0,214
-663,232	189,734	-0,076	-0,084
-662,218	800,000	0,055	-0,139
-661,203	350,116	0,055	0,079
-660,189	302,844	0,043	0,058
-659,174	582,639	-0,046	-0,083
-658,159	353,971	0,028	0,041
-657,145	-96,735	-0,034	0,006
-656,130	137,133	-0,013	0,012
-655,116	-2,172	0,116	0,060
-654,101	328,105	-0,041	-0,058
-653,086	-112,399	-0,106	0,015
-652,072	-106,989	0,166	-0,027
-651,057	88,585	-0,081	-0,066
-650,043	-166,562	-0,128	0,004
-649,028	-101,930	0,112	0,020
-648,014	-98,236	0,016	0,003
-646,999	28,106	-0,057	0,035
-645,984	122,648	-0,027	0,025
-644,970	385,177	-0,047	-0,071
-643,955	-200,000	0,002	-0,181
-642,941	800,000	-0,049	-0,153
-641,926	-200,000	-0,001	0,014
-640,911	139,707	-0,131	-0,126
-639,897	-200,000	0,004	-0,059
-638,882	142,356	-0,053	0,052
-637,868	800,000	0,062	0,133
-636,853	186,112	-0,099	-0,109
-635,838	245,898	-0,111	-0,137
-634,824	36,584	0,064	0,041
-633,809	800,000	0,062	-0,177
-632,795	-66,459	0,049	-0,014
-631,780	800,000	-0,038	0,113
-630,765	-200,000	-0,008	0,056
-629,751	800,000	-0,026	-0,079
-628,736	-23,185	-0,130	0,057
-627,722	-12,352	0,075	-0,036
-626,707	356,375	-0,034	0,050
-625,692	157,199	0,048	0,048
-624,678	-119,247	-0,051	0,006
-623,663	470,425	-0,082	-0,136
-622,649	2,330	-0,086	-0,045
-621,634	-200,000	0,013	0,054
-620,619	660,221	-0,009	-0,017
-619,605	800,000	0,019	-0,056
-618,590	-200,000	0,003	0,018
-617,576	-147,955	0,148	-0,009
-616,561	73,086	-0,140	-0,107
-615,546	800,000	-0,058	-0,147
-614,532	-200,000	-0,001	-0,101
-613,517	291,269	-0,041	-0,054
-612,503	24,639	0,020	0,012
-611,488	-200,000	0,012	-0,053
-610,474	526,913	-0,052	-0,090
-609,459	36,180	0,016	0,010
-608,444	186,689	0,064	-0,070
-607,430	746,833	-0,097	-0,192
-606,415	800,000	0,061	-0,142
-605,401	23,319	-0,095	-0,057
-604,386	-200,000	0,007	0,037
-603,371	800,000	-0,070	0,143
-602,357	800,000	-0,046	0,116
-601,342	40,307	-0,066	-0,043
-600,328	-171,260	0,007	-0,000
-599,313	-144,897	-0,047	0,003
-598,298	-119,356	0,091	-0,011
-597,284	-75,981	0,173	0,044
-596,269	800,000	0,041	-0,105
-595,255	-1,362	-0,040	-0,021
-594,240	800,000	-0,027	-0,082
-593,225	-43,960	-0,129	0,047
-592,211	-24,281	-0,114	-0,050
-591,196	-139,080	-0,089	-0,007
-590,182	-78,883	0,130	-0,032
-589,167	-200,000	-0,001	0,062
-588,152	800,000	-0,050	-0,107
-587,138	6,851	0,037	0,020
-586,123	604,952	0,064	-0,117
-585,109	35,680	-0,072	-0,046
-584,094	-200,000	-0,008	-0,103
-583,079	-200,000	-0,019	0,076
-582,065	800,000	0,030	0,069
-581,050	468,216	0,103	0,169
-580,036	-80,534	-0,035	-0,008
-579,021	-29,013	-0,023	-0,010
-578,006	-200,000	0,005	-0,028
-576,992	-32,429	-0,008	-0,003
-575,977	275,074	0,100	0,130
-574,963	144,368	0,074	0,073
-573,948	-200,000	0,008	0,077
-572,934	86,215	-0,080	0,065
-571,919	130,271	-0,053	0,050
-570,904	8,495	0,103	-0,057
-569,890	800,000	0,035	0,098
-568,875	298,695	0,038	0,052
-567,861	-200,000	0,039	0,199
-566,846	-200,000	-0,012	-0,048
-565,831	800,000	-0,031	-0,067
-564,817	-200,000	0,004	-0,046
-563,802	-101,322	-0,097	-0,017
-562,788	-200,000	-0,041	-0,176
-561,773	-200,000	0,010	-0,040
-560,758	14,103	0,155	0,088
-559,744	701,767	-0,034	0,066
-558,729	-136,906	-0,042	-0,003
-557,715	661,282	-0,047	0,089
-556,700	-136,585	-0,026	-0,002
-555,685	-200,000	0,007	-0,065
-554,671	304,988	0,018	0,025
-553,656	-143,372	0,146	-0,010
-552,642	-200,000	-0,014	0,087
-551,627	-200,000	-0,032	-0,122
-550,612	-117,617	0,006	-0,001
-549,598	-200,000	-0,018	-0,144
-548,583	248,310	-0,047	-0,059
-547,569	38,869	0,096	-0,062
-546,554	-167,253	-0,084	0,002
-545,539	374,308	0,046	-0,068
-544,525	-91,399	0,076	0,016
-543,510	549,817	-0,054	0,095
-542,496	54,320	-0,032	-0,023
-541,481	-32,069	0,037	-0,015
-540,466	-18,286	0,079	-0,036
-539,452	-84,232	0,245	0,056
-538,437	14,791	-0,049	0,028
-537,423	-117,082	0,107	-0,014
-536,408	-122,596	-0,134	0,016
-535,393	-76,354	0,113	-0,029
-534,379	33,483	-0,071	-0,045
-533,364	-90,371	0,053	-0,011
-532,350	-81,255	0,102	-0,024
-531,335	580,651	0,081	0,145
-530,321	59,570	-0,047	0,034
-529,306	196,565	-0,069	-0,077
-528,291	800,000	-0,023	0,053
-527,277	-8,737	-0,145	-0,071
-526,262	-29,369	-0,042	-0,017
-525,248	24,305	-0,088	0,053
-524,233	800,000	0,049	0,139
-523,218	-10,292	0,128	-0,062
-522,204	190,882	-0,093	0,102
-521,189	800,000	-0,050	0,130
-520,175	800,000	0,084	-0,187
-519,160	34,643	-0,057	-0,036
-518,145	-173,114	-0,179	-0,004
-517,131	50,119	0,038	0,026
-516,116	47,166	-0,084	0,057
-515,102	372,148	-0,067	-0,099
-514,087	180,999	-0,109	-0,117
-513,072	-200,000	-0,007	-0,109
-512,058	-200,000	-0,005	-0,146
-511,043	284,324	-0,016	0,020
-510,029	227,728	0,037	-0,044
-509,014	199,950	0,032	0,036
-507,999	40,176	-0,052	-0,034
-506,985	-58,184	-0,039	-0,012
-505,970	-200,000	0,005	0,018
-504,956	800,000	0,051	-0,156
-503,941	-124,134	0,053	-0,006
-502,926	-200,000	0,012	0,078
-501,912	-110,190	0,072	0,011
-500,897	800,000	-0,045	-0,119
-499,883	-49,509	0,181	0,063
-498,868	800,000	0,049	-0,127
-497,853	-200,000	-0,016	-0,147
-496,839	-67,165	0,078	0,022
-495,824	-200,000	0,008	-0,072
-494,810	-10,716	0,114	0,055
-493,795	-104,873	-0,020	-0,003
-492,781	800,000	-0,056	0,136
-491,766	800,000	0,045	-0,096
-490,751	-9,596	-0,067	-0,033
-489,737	800,000	-0,024	0,053
-488,722	-152,380	-0,051	-0,003
-487,708	-98,514	0,139	0,026
-486,693	-140,414	0,136	0,010
-485,678	195,636	0,028	-0,031
-484,664	-111,540	-0,130	0,019
-483,649	-17,107	0,097	0,044
-482,635	800,000	0,065	-0,133
-481,620	216,019	0,033	0,039
-480,605	-200,000	-0,005	0,082
-479,591	3,710	0,025	0,013
-478,576	800,000	0,010	0,020
-477,562	-33,896	-0,046	-0,018
-476,547	380,436	-0,032	-0,047
-475,532	-200,000	-0,002	0,023
-474,518	504,388	-0,053	-0,089
-473,503	474,208	-0,017	0,029
-472,489	147,694	-0,100	-0,098
-471,474	-74,949	-0,106	0,028
-470,459	-200,000	0,008	-0,041
-469,445	800,000	0,024	-0,073
-468,430	-200,000	-0,012	-0,079
-467,416	120,623	-0,040	0,036
-466,401	-41,650	-0,025	0,009
-465,386	-200,000	-0,009	0,038
-464,372	208,105	0,016	0,019
-463,357	800,000	-0,045	-0,100
-462,343	90,619	0,081	-0,066
-461,328	579,831	-0,071	-0,128
-460,313	800,000	0,018	-0,049
-459,299	-200,000	-0,017	-0,071
-458,284	-200,000	-0,025	0,133
-457,270	143,341	-0,058	0,056
-456,255	-65,685	0,103	0,030
-455,241	93,922	-0,019	-0,016
-454,226	800,000	-0,036	-0,073
-453,211	-153,840	0,065	0,003
-452,197	-98,028	0,030	-0,006
-451,182	-200,000	-0,013	-0,073
-450,168	230,047	-0,024	0,028
-449,153	254,988	-0,024	0,030
-448,138	76,228	0,070	0,054
-447,124	-28,098	-0,108	0,045
-446,109	158,653	-0,023	0,023
-445,095	-82,610	-0,059	-0,014
-444,080	-152,944	-0,159	-0,008
-443,065	148,105	0,138	-0,136
-442,051	-135,050	-0,125	0,011
-441,036	-67,704	0,118	0,033
-440,022	275,321	-0,008	0,011
-439,007	-6,999	0,201	0,099
-437,992	-200,000	0,010	0,093
-436,978	-200,000	0,022	0,079
-435,963	617,862	0,055	-0,101
-434,949	800,000	-0,006	-0,012
-433,934	-63,101	-0,076	-0,023
-432,919	-74,562	-0,145	-0,038
-431,905	604,268	0,049	-0,089
-430,890	-64,440	0,118	0,035
-429,876	150,387	0,055	0,055
-428,861	69,569	0,054	0,041
-427,846	-200,000	0,005	0,114
-426,832	396,847	0,035	0,054
-425,817	-200,000	0,012	-0,136
-424,803	-200,000	-0,004	-0,133
-423,788	4,075	0,147	0,078
-422,773	130,563	0,041	0,038
-421,759	-200,000	-0,023	0,129
-420,744	-160,826	0,130	-0,005
-419,730	-93,335	-0,085	-0,017
-418,715	800,000	0,041	0,132
-417,701	-61,836	0,089	0,027
-416,686	767,776	-0,068	0,135
-415,671	203,567	0,023	0,026
-414,657	-200,000	-0,006	0,071
-413,642	-68,117	0,084	-0,024
-412,628	149,615	-0,060	0,060
-411,613	153,666	-0,101	-0,101
-410,598	-81,233	-0,094	-0,022
-409,584	-200,000	0,002	-0,018
-408,569	118,689	-0,043	0,039
-407,555	-151,053	0,093	0,005
-406,540	134,892	-0,017	0,016
-405,525	800,000	0,033	-0,074
-404,511	297,362	-0,095	-0,127
-403,496	-50,165	-0,202	-0,069
-402,482	114,408	0,010	0,008
-401,467	-200,000	-0,003	0,189
-400,452	380,035	0,126	0,188
-399,438	2,970	0,045	0,023
-398,423	270,156	-0,079	0,102
-397,409	-200,000	0,014	-0,062
-396,394	697,242	0,043	-0,082
-395,379	-200,000	-0,014	-0,069
-394,365	-8,052	0,139	-0,068
-393,350	-40,778	-0,078	0,029
-392,336	609,807	-0,013	0,024
-391,321	-26,873	-0,092	0,039
-390,306	327,989	-0,037	-0,052
-389,292	-200,000	-0,000	-0,081
-388,277	-200,000	-0,025	0,096
-387,263	800,000	0,024	0,076
-386,248	692,758	0,030	0,057
-385,233	-200,000	0,032	0,108
-384,219	-4,640	-0,100	0,050
-383,204	-200,000	-0,011	0,062
-382,190	-123,959	-0,059	-0,007
-381,175	66,711	0,057	0,042
-380,160	-2,501	0,077	0,039
-379,146	470,257	-0,054	0,088
-378,131	-200,000	0,020	-0,077
-377,117	-39,122	-0,083	-0,031
-376,102	475,894	-0,063	-0,104
-375,088	-36,497	-0,078	0,030
-374,073	-134,717	0,050	-0,004
-373,058	289,956	-0,022	-0,030
-372,044	-112,870	0,135	-0,019
-371,029	-200,000	0,036	0,155
-370,015	249,774	-0,059	-0,073
-369,000	-128,779	0,059	-0,006
-367,985	53,819	-0,054	0,038
-366,971	-181,783	0,092	0,001
-365,956	33,302	0,119	-0,075
-364,942	-22,379	-0,055	-0,024
-363,927	-200,000	0,020	0,082
-362,912	117,204	-0,097	-0,086
-361,898	782,514	-0,050	0,100
-360,883	800,000	0,028	0,078
-359,869	-200,000	0,003	0,068
-358,854	540,949	-0,026	0,045
-357,839	-200,000	0,029	0,124
-356,825	755,850	0,060	-0,118
-355,810	79,857	-0,097	0,076
-354,796	-200,000	-0,050	0,176
-353,781	161,801	-0,045	-0,046
-352,766	-200,000	-0,008	-0,078
-351,752	-200,000	-0,003	-0,038
-350,737	-51,025	0,191	-0,065
-349,723	-119,649	0,115	-0,014
-348,708	-200,000	-0,015	0,064
-347,693	-84,715	-0,022	0,005
-346,679	-9,654	-0,051	-0,024
-345,664	73,681	-0,086	0,065
-344,650	-142,332	0,050	0,004
-343,635	7,017	0,077	-0,042
-342,620	165,357	0,068	0,069
-341,606	16,955	0,205	-0,118
-340,591	-200,000	0,002	-0,056
-339,577	-40,376	-0,112	-0,042
-338,562	800,000	-0,019	-0,043
-337,548	-200,000	0,025	0,101
-336,533	-65,287	0,183	-0,053
-335,518	800,000	-0,049	0,137
-334,504	-27,467	-0,108	-0,046
-333,489	382,991	0,068	-0,102
-332,475	-3,718	0,097	-0,049
-331,460	689,464	-0,019	-0,035
-330,445	800,000	-0,031	0,072
-329,431	6,322	0,148	0,079
-328,416	323,605	-0,040	-0,056
-327,402	338,940	-0,056	-0,079
-326,387	-89,967	0,159	-0,033
-325,372	-91,866	0,079	-0,016
-324,358	-20,432	0,074	-0,033
-323,343	779,176	-0,042	-0,084
-322,329	-200,000	-0,002	-0,017
-321,314	-159,831	0,089	-0,003
-320,299	-69,702	0,091	-0,025
-319,285	153,873	-0,013	0,012
-318,270	242,397	0,070	-0,085
-317,256	48,176	-0,112	-0,076
-316,241	-134,363	-0,210	0,018
-315,226	-200,000	0,001	0,032
-314,212	-116,290	-0,071	-0,009
-313,197	800,000	0,062	0,180
-312,183	85,384	0,071	-0,057
-311,168	-56,776	-0,103	0,033
-310,153	-29,632	0,051	-0,021
-309,139	-200,000	-0,013	0,101
-308,124	306,490	0,012	0,016
-307,110	138,534	0,101	0,096
-306,095	418,903	-0,047	0,074
-305,080	800,000	-0,042	0,096
-304,066	148,469	0,044	-0,043
-303,051	800,000	-0,025	-0,062
-302,037	-200,000	0,003	0,066
-301,022	61,585	0,061	-0,044
-300,008	54,560	-0,062	0,043
-298,993	-200,000	0,011	0,078
-297,978	800,000	0,036	0,075
-296,964	284,473	0,029	-0,038
-295,949	-200,000	0,005	0,072
-294,935	24,388	-0,158	-0,095
-293,920	-200,000	0,011	-0,117
-292,905	299,436	0,050	-0,066
-291,891	99,991	0,055	-0,046
-290,876	-200,000	0,026	0,125
-289,862	270,223	0,047	0,060
-288,847	-200,000	0,069	-0,237
-287,832	68,733	-0,136	0,101
-286,818	272,006	-0,076	0,098
-285,803	765,050	0,053	0,105
-284,789	233,914	0,028	0,034
-283,774	94,854	0,033	0,027
-282,759	-58,032	-0,219	-0,069
-281,745	-84,316	-0,046	-0,011
-280,730	-135,165	-0,051	0,004
-279,716	191,852	-0,010	-0,011
-278,701	800,000	-0,030	0,066
-277,686	-2,650	-0,093	0,047
-276,672	-82,536	0,158	0,037
-275,657	491,945	0,092	0,154
-274,643	-200,000	0,012	-0,126
-273,628	-200,000	-0,010	-0,111
-272,613	800,000	0,026	-0,069
-271,599	323,069	0,107	0,148
-270,584	-99,920	0,102	0,018
-269,570	21,121	-0,108	-0,063
-268,555	-113,233	-0,122	0,017
-267,540	255,822	0,093	-0,116
-266,526	-25,790	-0,071	0,030
-265,511	16,453	-0,085	0,049
-264,497	800,000	0,020	-0,058
-263,482	-68,086	0,050	0,014
-262,467	-200,000	-0,002	0,100
-261,453	274,170	0,028	0,035
-260,438	-200,000	-0,001	-0,058
-259,424	16,155	0,112	-0,064
-258,409	-35,337	-0,066	-0,026
-257,395	213,733	-0,096	-0,109
-256,380	-200,000	-0,003	-0,016
-255,365	800,000	0,035	-0,086
-254,351	-200,000	0,047	0,202
-253,336	-200,000	0,021	0,075
-252,322	446,182	0,046	0,073
-251,307	157,135	-0,120	0,120
-250,292	-200,000	0,065	0,000
-249,278	800,000	-0,013	-0,027
-248,263	-98,110	0,115	-0,021
-247,249	-200,000	0,034	0,120
-246,234	800,000	0,055	-0,116
-245,219	800,000	-0,048	-0,106
-244,205	800,000	0,036	0,076
-243,190	-109,450	0,032	-0,005
-242,176	-106,020	0,137	-0,022
-241,161	-200,000	-0,017	0,088
-240,146	131,049	-0,114	-0,106
-239,132	-100,769	0,185	-0,033
-238,117	444,865	-0,080	-0,128
-237,103	-19,814	-0,073	-0,033
-236,088	800,000	-0,021	-0,043
-235,073	800,000	0,024	0,052
-234,059	-60,647	0,047	0,014
-233,044	800,000	-0,051	0,149
-232,030	800,000	-0,012	-0,024
-231,015	15,438	-0,136	-0,077
-230,000	-59,471	-0,071	-0,022
-228,986	800,000	0,009	0,024
-227,971	117,841	-0,137	-0,122
-226,957	79,977	-0,024	-0,019
-225,942	-200,000	0,020	0,131
-224,927	68,886	-0,014	-0,011
-223,913	371,125	0,028	0,042
-222,898	-82,556	-0,027	0,006
-221,884	402,277	0,035	-0,053
-220,869	-54,544	-0,080	-0,026
-219,855	91,740	0,064	-0,052
-218,840	11,285	-0,077	0,042
-217,825	800,000	0,023	0,054
-216,811	-200,000	-0,027	-0,133
-215,796	57,104	-0,039	0,027
-214,782	-200,000	0,033	0,126
-213,767	62,616	-0,026	0,019
-212,752	-200,000	-0,026	-0,181
-211,738	-84,815	-0,123	-0,028
-210,723	66,507	0,029	0,021
-209,709	-200,000	0,009	-0,051
-208,694	-200,000	-0,005	-0,089
-207,679	-176,078	-0,061	0,001
-206,665	-94,063	0,026	0,005
-205,650	799,349	0,017	0,035
-204,636	103,985	0,131	0,111
-203,621	800,000	0,055	0,170
-202,606	-104,758	-0,196	-0,032
-201,592	173,314	-0,102	-0,106
-200,577	-75,864	-0,036	-0,009
-199,563	-200,000	-0,018	0,071
-198,548	800,000	0,047	0,095
-197,533	-200,000	-0,006	0,118
-196,519	-200,000	0,027	-0,093
-195,504	61,236	-0,137	-0,098
-194,490	-200,000	0,024	0,138
-193,475	-180,010	-0,169	-0,003
-192,460	-200,000	-0,028	0,098
-191,446	-90,726	0,143	0,030
-190,431	-200,000	0,029	0,173
-189,417	-18,142	0,201	0,090
-188,402	-200,000	0,023	0,097
-187,387	249,842	0,030	0,036
-186,373	2,145	-0,020	-0,010
-185,358	249,046	0,034	0,041
-184,344	-200,000	0,021	0,069
-183,329	-166,976	0,039	-0,001
-182,315	-200,000	0,002	-0,034
-181,300	-25,639	0,025	0,011
-180,285	349,027	0,104	0,148
-179,271	800,000	-0,060	-0,127
-178,256	-7,364	-0,036	-0,018
-177,242	-3,529	0,118	0,059
-176,227	183,442	-0,027	-0,029
-175,212	772,661	0,034	0,066
-174,198	-200,000	0,026	-0,106
-173,183	800,000	-0,013	-0,028
-172,169	-200,000	0,002	0,011
-171,154	-8,026	0,060	0,029
-170,139	-102,689	-0,078	0,013
-169,125	11,059	-0,070	0,038
-168,110	-167,466	0,109	0,003
-167,096	-72,396	0,047	-0,013
-166,081	191,990	-0,070	0,076
-165,066	800,000	-0,041	-0,086
-164,052	-48,185	-0,065	0,023
-163,037	800,000	0,005	-0,011
-162,023	108,213	0,038	0,033
-161,008	800,000	0,033	0,092
-159,993	-200,000	-0,003	0,068
-158,979	187,185	-0,042	0,045
-157,964	211,298	-0,064	0,072
-156,950	118,641	-0,012	-0,010
-155,935	52,403	-0,084	0,058
-154,920	-200,000	0,001	0,105
-153,906	34,601	0,039	0,024
-152,891	479,690	-0,050	-0,082
-151,877	82,337	-0,055	-0,043
-150,862	157,505	0,016	-0,016
-149,847	-141,559	-0,176	-0,013
-148,833	-200,000	-0,002	-0,088
-147,818	344,593	-0,034	-0,049
-146,804	-50,556	-0,064	0,022
-145,789	800,000	-0,074	-0,151
-144,775	800,000	0,018	0,052
-143,760	-20,443	0,069	-0,030
-142,745	17,244	-0,076	-0,043
-141,731	184,688	-0,033	0,035
-140,716	800,000	-0,031	0,083
-139,702	-200,000	0,003	0,082
-138,687	55,243	0,061	0,043
-137,672	47,761	-0,111	0,075
-136,658	800,000	-0,087	-0,269
-135,643	-29,400	0,068	-0,028
-134,629	-99,284	-0,144	-0,026
-133,614	394,040	-0,063	-0,094
-132,599	28,088	-0,023	0,014
-131,585	-28,541	0,105	-0,043
-130,570	31,706	0,083	0,051
-129,556	520,261	-0,075	-0,127
-128,541	800,000	0,024	-0,072
-127,526	168,830	-0,018	-0,019
-126,512	361,206	0,026	0,038
-125,497	-14,618	0,045	0,021
-124,483	-23,916	0,143	-0,061
-123,468	70,458	0,097	0,072
-122,453	-35,553	-0,063	-0,025
-121,439	-54,241	-0,132	-0,043
-120,424	18,532	0,106	-0,061
-119,410	800,000	-0,059	0,152
-118,395	-200,000	0,020	0,139
-117,380	15,496	-0,097	0,054
-116,366	288,973	-0,087	-0,114
-115,351	-200,000	-0,039	0,156
-114,337	96,328	0,052	-0,043
-113,322	-56,461	-0,078	0,025
-112,307	371,846	-0,011	-0,015
-111,293	800,000	-0,038	-0,084
-110,278	-200,000	-0,020	0,170
-109,264	-200,000	0,009	0,045
-108,249	54,373	0,078	-0,054
-107,234	-200,000	-0,004	-0,041
-106,220	121,454	0,056	0,050
-105,205	186,153	-0,111	0,119
-104,191	800,000	-0,061	0,153
-103,176	450,304	-0,021	-0,033
-102,162	800,000	0,011	-0,027
-101,147	800,000	-0,058	-0,135
-100,132	229,633	-0,049	-0,057
-99,118	-26,594	-0,163	-0,068
-98,103	14,956	0,130	0,073
-97,089	800,000	-0,070	0,204
-96,074	699,317	-0,040	-0,075
-95,059	362,960	0,053	0,076
-94,045	-200,000	-0,007	0,063
-93,030	44,007	-0,215	-0,142
-92,016	323,396	-0,083	-0,114
-91,001	113,175	0,074	-0,064
-89,986	800,000	0,021	0,057
-88,972	-200,000	-0,008	0,266
-87,957	800,000	-0,026	0,065
-86,943	52,607	-0,081	0,056
-85,928	800,000	-0,034	0,073
-84,913	800,000	-0,009	-0,023
-83,899	800,000	-0,042	0,103
-82,884	39,529	-0,081	0,052
-81,870	-200,000	-0,066	0,244
-80,855	-50,163	0,094	-0,032
-79,840	-97,838	-0,043	0,008
-78,826	91,798	-0,025	-0,021
-77,811	556,162	-0,067	-0,117
-76,797	-99,895	0,043	-0,008
-75,782	758,054	0,052	-0,101
-74,767	-200,000	-0,039	0,155
-73,753	331,943	-0,030	-0,041
-72,738	800,000	-0,054	0,119
-71,724	557,764	-0,106	-0,185
-70,709	41,126	-0,105	-0,068
-69,694	-200,000	0,005	0,083
-68,680	-5,303	-0,089	0,044
-67,665	-49,698	0,121	-0,041
-66,651	661,870	-0,030	0,056
-65,636	800,000	0,027	-0,076
-64,622	-36,580	-0,083	0,032
-63,607	-106,505	-0,175	-0,028
-62,592	800,000	-0,029	-0,059
-61,578	-138,477	0,116	-0,009
-60,563	-72,949	-0,152	0,040
-59,549	800,000	-0,036	0,103
-58,534	15,379	-2,054	-1,153
-57,519	-200,000	-0,209	-0,672
-56,505	-200,000	-1,407	-4,988
-55,490	144,738	0,935	0,897
-54,476	800,000	5,191	11,568
-53,461	-200,000	18,099	289,884
-52,446	800,000	728,094	2224,251
-51,432	532,775	1640,522	2796,862
-50,417	108,765	1629,293	1396,429
-49,403	72,573	1282,958	958,937
-48,388	31,157	1025,834	629,928
-47,373	19,850	987,918	569,410
-46,359	18,166	975,907	556,952
-45,344	15,388	972,030	545,643
-44,330	15,642	970,448	545,561
-43,315	15,168	968,534	542,917
-42,300	15,084	967,634	542,120
-41,286	15,130	966,566	541,648
-40,271	15,079	965,763	541,010
-39,257	15,099	964,710	540,466
-38,242	15,128	963,888	540,077
-37,227	15,189	962,918	539,711
-36,213	15,101	962,206	539,005
-35,198	15,053	961,298	538,318
-34,184	15,148	960,592	538,211
-33,169	15,082	959,772	537,515
-32,154	15,154	958,665	537,105
-31,140	15,078	957,988	536,462
-30,125	15,145	957,100	536,160
-29,111	15,164	956,251	535,723
-28,096	15,085	955,741	535,162
-27,082	15,160	954,970	534,948
-26,067	15,138	954,200	534,425
-25,052	15,088	953,348	533,767
-24,038	15,069	952,883	533,426
-23,023	15,084	952,166	533,051
-22,009	15,187	951,339	532,896
-20,994	15,146	950,891	532,491
-19,979	15,100	950,284	531,985
-18,965	15,155	949,564	531,736
-17,950	15,109	948,864	531,176
-16,936	15,113	948,090	530,736
-15,921	15,074	947,572	530,300
-14,906	15,019	947,078	529,827
-13,892	15,021	946,258	529,352
-12,877	14,940	945,770	528,802
-11,863	14,977	945,067	528,504
-10,848	14,974	944,449	528,129
-9,833	15,027	944,044	528,052
-8,819	15,061	943,702	527,944
-7,804	15,006	942,710	527,194
-6,790	14,982	942,188	526,808
-5,775	15,053	941,623	526,693
-4,760	15,047	940,975	526,291
-3,746	15,008	940,429	525,843
-2,731	14,889	939,790	525,087
-1,717	14,856	939,209	524,638
-0,702	14,842	938,436	524,141
0,313	14,680	937,783	524,059
1,327	18,137	935,768	533,760
2,342	27,554	789,229	474,953
3,356	24,107	444,119	262,148
4,371	-5,571	295,157	144,600
5,386	-9,567	276,971	131,895
6,400	-10,887	271,303	127,959
7,415	-11,257	269,126	126,580
8,429	-11,112	267,606	125,987
9,444	-11,299	266,614	125,338
10,459	-11,002	265,923	125,272
11,473	-11,311	265,431	124,748
12,488	-11,251	264,910	124,547
13,502	-11,461	264,344	124,080
14,517	-11,374	263,854	123,918
15,531	-11,426	263,682	123,778
16,546	-11,351	263,062	123,544
17,561	-11,458	262,986	123,401
18,575	-11,449	262,592	123,214
19,590	-11,262	262,194	123,183
20,604	-11,084	261,788	123,141
21,619	-11,257	261,458	122,820
22,634	-11,300	261,151	122,627
23,648	-11,471	260,967	122,376
24,663	-11,320	260,659	122,356
25,677	-11,163	260,305	122,319
26,692	-11,599	260,130	121,838
27,707	-11,636	259,888	121,681
28,721	-11,439	259,577	121,699
29,736	-11,347	259,146	121,567
30,750	-11,625	259,174	121,324
31,765	-11,603	258,728	121,123
32,780	-11,423	258,450	121,141
33,794	-11,314	258,308	121,160
34,809	-11,462	258,108	120,925
35,823	-11,357	257,775	120,851
36,838	-11,453	257,547	120,648
37,853	-11,449	257,329	120,540
38,867	-11,570	256,971	120,255
39,882	-11,677	256,909	120,120
40,896	-11,526	256,527	120,064
41,911	-11,517	256,459	120,029
42,926	-11,681	256,242	119,773
43,940	-11,817	255,934	119,500
44,955	-11,758	255,660	119,414
45,969	-11,760	255,377	119,269
46,984	-11,823	255,046	119,048
47,999	-11,959	254,910	118,856
49,013	-12,128	254,543	118,528
50,028	-12,247	254,238	118,272
51,042	-12,429	254,088	118,034
52,057	-12,395	253,899	117,965
53,071	-12,314	253,633	117,900
54,086	-12,191	253,566	117,966
55,101	-12,066	253,327	117,952
56,115	-11,968	253,281	118,005
57,130	-11,479	253,138	118,350
58,144	-11,203	252,860	118,447
59,159	-11,139	252,674	118,404
60,174	-11,271	252,603	118,247
61,188	-11,338	252,341	118,056
62,203	-11,496	252,069	117,782
63,217	-11,465	251,877	117,709
64,232	-11,248	251,668	117,786
65,247	-11,237	251,359	117,641
66,261	-11,332	251,287	117,516
67,276	-11,624	250,881	117,066
68,290	-11,900	250,775	116,770
69,305	-11,975	250,572	116,602
70,320	-11,903	250,315	116,532
71,334	-11,628	250,277	116,739
72,349	-11,375	249,949	116,791
73,363	-11,387	249,915	116,754
74,378	-11,396	249,595	116,587
75,393	-11,227	249,267	116,566
76,407	-11,341	249,142	116,401
77,422	-11,343	249,131	116,384
78,436	-11,200	248,753	116,318
79,451	-11,609	248,566	115,875
80,466	-11,462	248,373	115,898
81,480	-11,693	248,044	115,539
82,495	-11,812	247,719	115,277
83,509	-11,531	247,756	115,521
84,524	-11,572	247,445	115,331
85,539	-12,034	247,283	114,857
86,553	-11,588	246,848	115,019
87,568	-11,721	246,843	114,895
88,582	-11,807	246,824	114,803
89,597	-11,788	246,480	114,649
90,611	-11,490	246,278	114,794
91,626	-11,443	246,370	114,866
92,641	-11,375	245,874	114,682
93,655	-11,502	245,803	114,532
94,670	-11,511	245,605	114,422
95,684	-11,602	245,497	114,286
96,699	-11,622	245,206	114,123
97,714	-11,823	244,995	113,847
98,728	-11,798	244,808	113,771
99,743	-12,020	244,723	113,537
100,757	-11,927	244,354	113,433
101,772	-11,805	244,155	113,432
102,787	-11,670	244,081	113,499
103,801	-11,598	243,817	113,427
104,816	-11,489	243,589	113,400
105,830	-11,503	243,677	113,419
106,845	-11,344	243,402	113,412
107,860	-11,601	243,201	113,096
108,874	-11,516	242,987	113,057
109,889	-11,505	242,775	112,958
110,903	-11,670	242,680	112,767
111,918	-11,758	242,572	112,634
112,933	-11,523	242,236	112,662
113,947	-11,612	242,107	112,519
114,962	-11,587	241,981	112,470
115,976	-11,557	241,708	112,358
116,991	-11,363	241,486	112,404
118,006	-11,500	241,331	112,210
119,020	-11,418	241,249	112,228
120,035	-11,487	241,030	112,060
121,049	-11,499	241,085	112,066
122,064	-11,288	240,849	112,119
123,079	-11,511	240,503	111,766
124,093	-11,622	240,473	111,651
125,108	-11,550	240,062	111,509
126,122	-12,013	239,738	110,973
127,137	-11,906	239,626	110,998
128,151	-11,923	239,435	110,885
129,166	-11,886	239,351	110,867
130,181	-11,914	239,241	110,783
131,195	-11,880	238,807	110,600
132,210	-11,803	238,805	110,651
133,224	-11,658	238,740	110,728
134,239	-11,524	238,437	110,686
135,254	-11,576	238,329	110,585
136,268	-11,658	238,151	110,426
137,283	-11,862	237,745	110,064
138,297	-11,943	237,563	109,904
139,312	-11,971	237,392	109,794
140,327	-11,752	237,351	109,940
141,341	-10,996	237,342	110,533
142,356	-11,256	237,305	110,298
143,370	-11,185	236,997	110,202
144,385	-11,283	237,050	110,137
145,400	-10,962	236,776	110,258
146,414	-10,972	236,558	110,139
147,429	-10,939	236,211	109,993
148,443	-11,305	236,182	109,678
149,458	-11,107	236,022	109,752
150,473	-11,342	235,862	109,480
151,487	-11,313	235,651	109,395
152,502	-11,296	235,473	109,316
153,516	-11,117	235,289	109,363
154,531	-11,330	235,244	109,164
155,546	-11,307	234,874	109,001
156,560	-11,308	234,930	109,016
157,575	-11,444	234,487	108,693
158,589	-11,250	234,313	108,756
159,604	-11,028	234,203	108,871
160,619	-10,997	234,170	108,870
161,633	-11,037	233,827	108,669
162,648	-11,221	233,927	108,561
163,662	-11,137	233,735	108,528
164,677	-11,188	233,498	108,369
165,692	-11,071	233,340	108,378
166,706	-11,079	233,331	108,358
167,721	-10,945	233,085	108,339
168,735	-11,174	233,086	108,150
169,750	-11,119	232,741	108,024
170,764	-11,286	232,691	107,859
171,779	-11,035	232,372	107,899
172,794	-11,123	232,449	107,855
173,808	-11,348	232,087	107,502
174,823	-11,833	231,778	106,970
175,837	-11,966	231,632	106,790
176,852	-11,595	231,734	107,117
177,867	-11,154	231,489	107,338
178,881	-11,246	231,261	107,151
179,896	-11,141	231,273	107,229
180,910	-11,130	231,081	107,139
181,925	-10,826	230,777	107,225
182,940	-11,011	230,725	107,048
183,954	-11,089	230,507	106,876
184,969	-11,013	230,464	106,906
185,983	-10,874	230,349	106,951
186,998	-10,894	230,154	106,835
188,013	-11,057	229,943	106,601
189,027	-10,712	229,877	106,828
190,042	-10,782	229,542	106,610
191,056	-11,001	229,632	106,472
192,071	-11,042	229,351	106,300
193,086	-11,038	229,173	106,212
194,100	-11,043	229,021	106,128
195,115	-11,336	228,495	105,650
196,129	-11,499	228,672	105,596
197,144	-6,328	230,292	110,340
198,159	-0,739	231,940	115,468
199,173	2,773	232,867	118,655
200,188	3,248	232,960	119,061
201,202	3,206	232,796	118,934
202,217	3,431	232,592	118,994
203,232	3,523	232,550	119,034
204,246	3,777	232,472	119,180
205,261	3,862	232,385	119,190
206,275	4,029	232,116	119,171
207,290	3,946	232,039	119,057
208,304	4,000	231,829	118,981
209,319	4,155	231,543	118,942
210,334	3,865	231,409	118,639
211,348	3,430	231,464	118,321
212,363	3,067	231,082	117,835
213,377	3,089	230,673	117,633
214,392	2,909	230,753	117,525
215,407	3,305	230,462	117,670
216,421	3,244	230,515	117,640
217,436	3,372	230,122	117,528
218,450	3,154	229,954	117,264
219,465	2,858	229,798	116,947
220,480	2,980	229,767	117,014
221,494	3,110	229,594	117,016
222,509	3,155	229,534	117,009
223,523	2,912	229,264	116,675
224,538	2,928	229,118	116,603
225,553	2,991	228,954	116,557
226,567	3,024	228,921	116,555
227,582	3,432	228,752	116,769
228,596	3,500	228,736	116,803
229,611	3,222	228,463	116,441
230,626	2,930	228,119	116,034
231,640	3,069	228,143	116,141
232,655	3,308	228,125	116,303
233,669	3,687	228,069	116,552
234,684	3,568	227,963	116,397
235,699	3,273	227,690	116,024
236,713	3,167	227,368	115,769
237,728	3,041	227,075	115,514
238,742	3,008	227,068	115,476
239,757	3,110	227,016	115,516
240,772	3,105	226,795	115,389
241,786	2,819	226,694	115,112
242,801	3,373	226,689	115,517
243,815	3,636	226,608	115,663
244,830	3,590	226,324	115,474
245,844	3,155	226,168	115,056
246,859	3,292	225,782	114,953
247,874	3,438	225,760	115,040
248,888	3,498	225,752	115,072
249,903	3,383	225,565	114,880
250,917	3,148	225,321	114,570
251,932	3,087	225,186	114,445
252,947	3,037	225,098	114,352
253,961	2,885	224,825	114,090
254,976	2,919	224,771	114,078
255,990	3,191	224,611	114,189
257,005	3,204	224,483	114,124
258,020	3,309	224,458	114,179
259,034	3,506	224,216	114,192
260,049	3,265	224,141	113,965
261,063	3,319	223,943	113,894
262,078	3,310	223,846	113,828
263,093	3,357	223,876	113,868
264,107	3,442	223,446	113,702
265,122	3,536	223,308	113,692
266,136	3,528	223,301	113,672
267,151	3,377	223,290	113,544
268,166	3,219	222,800	113,168
269,180	2,968	222,681	112,912
270,195	2,974	222,538	112,834
271,209	3,077	222,474	112,868
272,224	3,157	222,340	112,849
273,239	3,453	222,124	112,947
274,253	3,261	221,970	112,717
275,268	3,052	221,610	112,371
276,282	2,851	221,605	112,211
277,297	2,923	221,464	112,182
278,312	2,921	221,334	112,105
279,326	3,003	221,352	112,164
280,341	3,081	221,160	112,114
281,355	3,222	221,005	112,129
282,370	3,044	220,819	111,894
283,384	2,862	220,652	111,666
284,399	2,593	220,588	111,427
285,414	2,931	220,304	111,520
286,428	3,120	220,286	111,640
287,443	3,221	220,226	111,673
288,457	3,372	220,112	111,715
289,472	3,165	219,773	111,382
290,487	2,720	219,444	110,882
291,501	2,472	219,492	110,716
292,516	2,848	219,351	110,908
293,530	2,934	219,280	110,925
294,545	2,933	219,095	110,821
295,560	3,069	218,989	110,856
296,574	3,149	218,957	110,888
297,589	3,148	218,687	110,741
298,603	3,080	218,634	110,654
299,618	3,278	218,428	110,683
300,633	3,218	218,442	110,638
301,647	3,381	218,370	110,709
302,662	3,420	218,146	110,614
303,676	3,321	217,891	110,403
304,691	3,479	217,835	110,478
305,706	3,376	217,622	110,287
306,720	3,244	217,588	110,165
307,735	2,936	217,452	109,864
308,749	3,062	217,125	109,780
309,764	3,096	217,181	109,823
310,779	3,383	217,023	109,939
311,793	3,358	216,891	109,845
312,808	3,190	216,711	109,623
313,822	2,996	216,575	109,405
314,837	3,134	216,322	109,367
315,852	2,899	216,275	109,165
316,866	3,150	216,157	109,275
317,881	3,283	216,083	109,323
318,895	3,260	215,877	109,193
319,910	3,153	215,575	108,954
320,925	2,815	215,476	108,654
321,939	2,852	215,238	108,550
322,954	2,766	215,070	108,395
323,968	3,140	215,101	108,666
324,983	3,282	215,062	108,738
325,997	3,537	214,977	108,867
327,012	2,876	214,879	108,338
328,027	3,100	214,790	108,442
329,041	3,416	214,604	108,563
330,056	3,451	214,461	108,505
331,070	3,270	214,111	108,191
332,085	2,859	213,840	107,754
333,100	2,856	213,814	107,729
334,114	3,143	213,703	107,866
335,129	3,347	213,594	107,945
336,143	3,366	213,384	107,843
337,158	3,151	213,307	107,643
338,173	3,303	213,153	107,662
339,187	3,145	212,987	107,458
340,202	2,752	212,963	107,160
341,216	2,915	212,671	107,118
342,231	3,163	212,710	107,302
343,246	3,049	212,579	107,147
344,260	3,190	212,410	107,151
345,275	3,192	212,384	107,129
346,289	3,383	212,145	107,133
347,304	3,278	212,073	107,014
348,319	3,315	212,014	107,000
349,333	3,192	211,818	106,806
350,348	3,213	211,724	106,763
351,362	3,318	211,529	106,729
352,377	3,426	211,485	106,772
353,392	3,293	211,298	106,576
354,406	3,156	211,255	106,449
355,421	196,961	1339,505	1421,364
356,435	157,388	1476,939	1421,337
