DTS Sentinel unit serial number:	SN410029Multiplexer serial number:	ORYXHardware model number:	OX2-SRSoftware version number:	ORYX F/W v4,00 Oryx Data Collector v3.7.2.0data status	okinstallation	B6 Nyhavnadifferential loss correction	single-endedforward channel	channel 2reverse channel	N/Adate	2023/12/08time	17:15:08forward acquisition time	300,00reverse acquisition time	0,00gamma	499,1914k internal	0,3159k external	0,3159temperature offset calibration	1,0000default loss term (dB/km)	0,3820temperature slope calibration	1,0000multiplexer offset coefficient	1,0000multiplexer slope coefficient	1,0000fibre end	0,00T internal ref (°C)	15,15T ext. ref 1 (°C)	-1,39T ext. ref 2 (°C)	-1,39length (m)	temperature (°C)	Stokes	anti-Stokes-744,400	31,223	0,056	-0,035
-743,385	24,095	-0,297	-0,180
-742,371	-84,483	0,160	0,037
-741,356	-106,876	-0,271	-0,044
-740,342	52,537	-0,033	0,023
-739,327	-185,181	-0,305	-0,003
-738,312	-121,862	0,169	-0,020
-737,298	-133,080	-0,297	-0,027
-736,283	-200,000	0,023	-0,202
-735,269	-26,688	-0,275	-0,118
-734,254	-107,040	0,044	-0,007
-733,239	-108,589	-0,390	-0,061
-732,225	-98,833	0,106	0,020
-731,210	269,814	0,050	0,065
-730,196	60,127	-0,065	-0,048
-729,181	-11,547	0,042	0,020
-728,167	178,642	-0,032	-0,035
-727,152	800,000	0,055	0,121
-726,137	-200,000	-0,015	0,126
-725,123	-200,000	-0,017	-0,127
-724,108	86,895	-0,128	0,104
-723,094	-11,836	0,178	-0,086
-722,079	334,083	-0,029	0,042
-721,064	36,940	0,061	-0,040
-720,050	185,185	-0,045	-0,049
-719,035	-200,000	-0,017	0,085
-718,021	800,000	-0,029	-0,090
-717,006	425,973	0,025	-0,040
-715,991	-98,356	-0,075	-0,014
-714,977	-45,162	-0,077	0,028
-713,962	-200,000	0,002	-0,146
-712,948	-200,000	0,034	-0,171
-711,933	-200,000	0,019	-0,093
-710,918	-200,000	0,003	0,129
-709,904	33,644	-0,073	0,047
-708,889	52,020	-0,193	-0,135
-707,875	-140,975	-0,183	-0,014
-706,860	800,000	-0,013	0,034
-705,845	-200,000	0,030	-0,131
-704,831	519,871	0,024	-0,042
-703,816	17,700	0,135	0,079
-702,802	-21,672	0,073	0,033
-701,787	-70,454	-0,064	-0,018
-700,772	96,270	0,112	0,094
-699,758	-200,000	-0,008	0,030
-698,743	-34,481	0,065	0,026
-697,729	-125,763	-0,106	0,012
-696,714	800,000	0,023	-0,069
-695,699	-149,149	-0,140	-0,008
-694,685	63,421	0,063	0,047
-693,670	46,693	-0,107	0,073
-692,656	-200,000	-0,034	0,183
-691,641	-18,507	-0,107	-0,049
-690,627	533,479	0,081	0,141
-689,612	800,000	-0,037	-0,079
-688,597	-200,000	-0,008	-0,125
-687,583	800,000	-0,058	-0,122
-686,568	-200,000	0,004	0,196
-685,554	277,213	-0,057	-0,074
-684,539	-200,000	0,025	0,106
-683,524	776,392	0,020	0,040
-682,510	280,775	-0,017	-0,022
-681,495	-111,750	-0,098	0,014
-680,481	-200,000	0,013	-0,100
-679,466	409,161	0,082	-0,128
-678,451	800,000	-0,037	-0,116
-677,437	36,153	0,097	-0,063
-676,422	800,000	0,038	-0,093
-675,408	44,052	0,058	0,039
-674,393	566,394	-0,024	0,043
-673,378	254,164	0,038	-0,047
-672,364	-200,000	-0,029	0,105
-671,349	-107,473	0,038	0,006
-670,335	-200,000	-0,018	0,128
-669,320	-200,000	-0,002	0,017
-668,305	90,156	-0,076	0,063
-667,291	-200,000	0,004	-0,111
-666,276	16,806	0,050	0,029
-665,262	-165,505	0,085	0,003
-664,247	-71,690	-0,101	0,027
-663,232	-200,000	0,011	0,059
-662,218	736,280	0,036	-0,072
-661,203	152,499	0,012	-0,012
-660,189	198,977	0,046	0,052
-659,174	109,721	-0,103	-0,091
-658,159	-12,884	-0,107	-0,051
-657,145	617,702	-0,056	-0,103
-656,130	-42,221	0,046	0,017
-655,116	-200,000	0,006	-0,031
-654,101	724,998	-0,025	0,050
-653,086	-3,255	-0,071	0,036
-652,072	107,234	-0,062	0,054
-651,057	-3,065	-0,081	-0,042
-650,043	-93,745	-0,066	-0,013
-649,028	-56,924	0,078	-0,025
-648,014	-47,237	-0,169	0,060
-646,999	-98,057	-0,053	-0,010
-645,984	25,795	0,040	0,024
-644,970	-31,980	-0,091	-0,037
-643,955	-15,618	-0,048	-0,022
-642,941	-167,205	-0,055	0,002
-641,926	-13,354	-0,131	0,062
-640,911	-120,795	-0,166	0,020
-639,897	800,000	0,045	0,100
-638,882	-200,000	-0,003	-0,029
-637,868	-77,395	-0,004	-0,001
-636,853	-30,747	0,095	-0,039
-635,838	800,000	-0,010	-0,024
-634,824	-154,098	-0,094	0,005
-633,809	-39,428	0,121	0,046
-632,795	-40,754	-0,081	-0,030
-631,780	800,000	-0,035	0,075
-630,765	165,086	0,157	0,163
-629,751	-59,229	-0,193	-0,061
-628,736	800,000	0,011	0,026
-627,722	-161,124	0,042	-0,002
-626,707	-112,047	0,022	0,003
-625,692	268,740	0,034	-0,044
-624,678	161,660	0,062	0,064
-623,663	-200,000	0,003	0,104
-622,649	89,165	-0,090	-0,073
-621,634	-130,384	-0,098	0,010
-620,619	-200,000	0,001	0,056
-619,605	-200,000	0,005	0,232
-618,590	800,000	-0,055	0,144
-617,576	-200,000	-0,012	0,091
-616,561	35,967	0,055	0,035
-615,546	-1,177	0,080	-0,041
-614,532	279,496	-0,091	-0,119
-613,517	441,004	0,006	-0,009
-612,503	458,601	-0,094	0,153
-611,488	267,039	-0,068	0,087
-610,474	-128,595	-0,033	0,003
-609,459	-200,000	-0,002	0,039
-608,444	-78,816	-0,089	-0,022
-607,430	-34,679	-0,037	-0,015
-606,415	800,000	0,062	0,126
-605,401	-146,991	-0,046	0,003
-604,386	-151,441	0,104	0,006
-603,371	686,539	-0,017	0,032
-602,357	-200,000	-0,021	-0,085
-601,342	-200,000	0,009	-0,104
-600,328	525,459	-0,045	-0,078
-599,313	-200,000	-0,004	-0,072
-598,298	680,934	-0,048	-0,091
-597,284	281,561	-0,090	-0,118
-596,269	-200,000	0,026	0,132
-595,255	-76,212	-0,039	-0,010
-594,240	150,052	-0,029	0,029
-593,225	800,000	-0,028	-0,064
-592,211	-36,513	-0,059	0,023
-591,196	-42,248	0,028	0,010
-590,182	340,643	0,015	0,022
-589,167	720,878	0,031	-0,061
-588,152	782,030	0,030	0,060
-587,138	25,356	-0,037	-0,022
-586,123	-200,000	-0,006	-0,073
-585,109	-200,000	-0,001	0,025
-584,094	-200,000	-0,016	0,107
-583,079	800,000	0,009	0,019
-582,065	-200,000	0,005	-0,074
-581,050	-200,000	-0,007	0,067
-580,036	-200,000	0,006	-0,053
-579,021	40,633	-0,076	-0,050
-578,006	142,289	-0,055	-0,053
-576,992	800,000	-0,031	-0,066
-575,977	-42,847	0,048	-0,018
-574,963	-200,000	-0,022	-0,074
-573,948	-200,000	-0,010	0,101
-572,934	14,054	0,078	-0,044
-571,919	-34,507	0,089	0,036
-570,904	-35,782	0,049	-0,019
-569,890	-161,897	0,078	-0,003
-568,875	249,425	-0,071	0,089
-567,861	-15,840	-0,027	-0,013
-566,846	72,921	-0,008	0,006
-565,831	-57,694	0,066	-0,021
-564,817	-32,002	-0,098	0,040
-563,802	-87,211	0,039	0,009
-562,788	-200,000	-0,022	0,078
-561,773	112,969	-0,074	0,066
-560,758	800,000	0,006	-0,016
-559,744	800,000	-0,029	-0,065
-558,729	28,667	-0,125	0,077
-557,715	-164,588	-0,125	0,004
-556,700	-200,000	-0,022	-0,201
-555,685	-119,652	-0,082	0,010
-554,671	66,236	-0,044	-0,032
-553,656	-108,075	0,103	-0,016
-552,642	-200,000	-0,012	0,158
-551,627	-63,116	-0,072	-0,022
-550,612	-200,000	-0,026	-0,110
-549,598	-19,441	0,088	0,040
-548,583	399,713	0,033	-0,050
-547,569	122,826	-0,089	-0,082
-546,554	-139,889	-0,069	0,005
-545,539	-200,000	0,006	0,024
-544,525	139,019	0,051	0,049
-543,510	184,360	-0,093	-0,101
-542,496	-200,000	-0,110	-0,000
-541,481	-200,000	0,004	0,078
-540,466	42,581	-0,043	0,029
-539,452	-200,000	-0,022	0,078
-538,437	129,628	0,051	0,048
-537,423	-89,548	0,086	0,018
-536,408	-200,000	0,000	-0,020
-535,393	-200,000	0,006	-0,049
-534,379	-128,937	0,116	-0,012
-533,364	-200,000	-0,010	0,137
-532,350	176,832	0,054	-0,057
-531,335	800,000	-0,048	0,099
-530,321	510,536	-0,025	0,043
-529,306	-101,929	-0,025	0,004
-528,291	135,152	-0,081	-0,077
-527,277	293,857	-0,112	0,150
-526,262	-95,958	0,112	0,022
-525,248	-200,000	-0,223	-0,000
-524,233	-174,287	0,143	0,003
-523,218	284,215	-0,014	-0,019
-522,204	532,710	-0,043	-0,074
-521,189	-10,547	-0,092	0,045
-520,175	518,471	0,092	-0,157
-519,160	-26,219	-0,073	-0,031
-518,145	-200,000	-0,010	-0,061
-517,131	151,960	0,104	0,103
-516,116	-131,343	-0,093	-0,009
-515,102	652,135	0,019	0,035
-514,087	192,799	-0,013	0,015
-513,072	-200,000	-0,026	0,100
-512,058	-200,000	0,001	0,006
-511,043	-3,648	-0,067	0,034
-510,029	-200,000	-0,018	0,087
-509,014	-200,000	0,045	0,191
-507,999	-26,658	0,068	-0,029
-506,985	140,477	0,049	0,047
-505,970	-6,827	0,055	-0,027
-504,956	-151,234	-0,109	-0,006
-503,941	-129,936	-0,099	-0,010
-502,926	-200,000	-0,023	-0,168
-501,912	800,000	-0,049	0,131
-500,897	78,579	-0,122	-0,095
-499,883	800,000	-0,002	-0,005
-498,868	-200,000	-0,028	-0,151
-497,853	527,382	-0,085	-0,147
-496,839	-17,782	-0,044	-0,020
-495,824	-200,000	-0,000	-0,082
-494,810	-13,719	0,041	-0,019
-493,795	206,640	0,038	-0,043
-492,781	51,822	0,035	0,024
-491,766	-200,000	0,012	-0,127
-490,751	595,439	0,018	-0,032
-489,737	-49,806	-0,139	-0,048
-488,722	16,058	-0,102	0,058
-487,708	141,357	0,057	-0,055
-486,693	352,455	0,027	0,039
-485,678	-200,000	0,015	0,137
-484,664	-200,000	-0,009	0,049
-483,649	-118,862	0,138	-0,018
-482,635	234,972	-0,048	0,058
-481,620	-200,000	-0,026	-0,115
-480,605	-8,921	0,043	-0,021
-479,591	303,085	-0,029	-0,040
-478,576	-41,329	-0,162	-0,060
-477,562	254,051	-0,063	0,078
-476,547	20,073	-0,070	-0,041
-475,532	-200,000	0,007	-0,059
-474,518	-22,514	0,135	0,059
-473,503	-66,748	0,081	0,023
-472,489	-67,912	0,081	-0,023
-471,474	147,760	-0,086	0,085
-470,459	800,000	-0,023	-0,055
-469,445	800,000	-0,063	-0,187
-468,430	-200,000	0,004	-0,070
-467,416	-46,438	0,110	-0,039
-466,401	800,000	0,026	0,057
-465,386	164,717	-0,055	-0,056
-464,372	-95,253	-0,032	-0,006
-463,357	-26,687	0,137	-0,058
-462,343	93,412	-0,040	0,033
-461,328	450,235	0,039	-0,062
-460,313	-123,019	0,037	-0,004
-459,299	800,000	0,005	0,014
-458,284	-200,000	0,058	0,201
-457,270	-200,000	-0,006	-0,098
-456,255	180,885	0,127	-0,136
-455,241	109,370	0,039	0,034
-454,226	63,001	-0,106	-0,077
-453,211	800,000	-0,013	-0,031
-452,197	75,942	0,067	-0,052
-451,182	-200,000	0,023	0,080
-450,168	-200,000	0,053	-0,183
-449,153	386,887	0,031	0,047
-448,138	-200,000	0,018	-0,121
-447,124	29,530	-0,087	0,054
-446,109	182,913	0,098	-0,105
-445,095	800,000	-0,043	-0,095
-444,080	11,714	0,118	0,066
-443,065	10,496	-0,128	0,071
-442,051	97,809	0,082	-0,069
-441,036	470,023	-0,062	0,101
-440,022	-200,000	-0,022	-0,144
-439,007	212,918	-0,015	0,017
-437,992	-200,000	0,010	-0,070
-436,978	-200,000	-0,004	0,013
-435,963	357,088	-0,037	-0,054
-434,949	800,000	0,020	0,051
-433,934	-79,721	-0,112	0,027
-432,919	99,197	-0,048	-0,040
-431,905	800,000	-0,034	0,085
-430,890	-200,000	0,001	0,017
-429,876	391,507	0,071	0,108
-428,861	-172,868	-0,046	0,001
-427,846	-42,476	0,112	0,041
-426,832	800,000	-0,018	-0,044
-425,817	53,193	-0,036	-0,025
-424,803	8,390	0,136	-0,074
-423,788	276,737	-0,102	-0,132
-422,773	214,486	0,048	0,055
-421,759	1,850	0,025	0,013
-420,744	800,000	0,027	-0,074
-419,730	136,490	-0,051	0,048
-418,715	-200,000	0,003	-0,120
-417,701	800,000	0,021	0,057
-416,686	800,000	0,057	0,168
-415,671	-40,945	0,062	0,023
-414,657	-200,000	-0,007	-0,051
-413,642	159,628	0,094	0,096
-412,628	-166,449	-0,067	0,002
-411,613	-36,003	0,122	0,048
-410,598	-97,213	0,053	0,010
-409,584	-19,386	-0,053	0,024
-408,569	-200,000	0,020	-0,069
-407,555	65,307	-0,056	0,041
-406,540	798,948	-0,048	0,097
-405,525	800,000	-0,054	-0,148
-404,511	88,484	0,105	-0,085
-403,496	-132,286	-0,155	-0,014
-402,482	60,163	0,017	0,012
-401,467	-200,000	0,015	-0,111
-400,452	-200,000	-0,004	-0,107
-399,438	-200,000	0,006	-0,033
-398,423	638,634	0,086	-0,160
-397,409	153,984	0,075	-0,075
-396,394	121,747	0,049	0,044
-395,379	56,558	0,111	0,079
-394,365	-58,646	0,118	0,037
-393,350	-200,000	-0,001	0,146
-392,336	-99,751	0,115	0,021
-391,321	800,000	0,030	-0,087
-390,306	408,401	-0,076	-0,117
-389,292	-200,000	-0,017	-0,116
-388,277	109,598	0,015	-0,013
-387,263	800,000	-0,016	-0,047
-386,248	-200,000	-0,007	-0,057
-385,233	-172,139	0,091	-0,002
-384,219	-48,376	-0,039	-0,013
-383,204	57,725	-0,057	-0,040
-382,190	-73,778	-0,118	0,031
-381,175	-51,869	0,112	-0,038
-380,160	-156,312	-0,078	0,004
-379,146	-76,089	0,269	0,068
-378,131	-200,000	-0,011	0,050
-377,117	-167,684	0,129	0,004
-376,102	800,000	-0,031	-0,065
-375,088	78,688	-0,110	0,086
-374,073	-0,942	0,123	-0,063
-373,058	120,523	0,126	0,114
-372,044	800,000	-0,039	0,103
-371,029	509,912	0,064	-0,108
-370,015	336,599	-0,051	0,072
-369,000	71,566	-0,062	0,046
-367,985	409,987	0,032	-0,049
-366,971	156,071	0,048	0,049
-365,956	800,000	-0,061	0,191
-364,942	343,228	0,057	0,082
-363,927	-37,717	-0,050	-0,019
-362,912	-148,604	-0,077	0,005
-361,898	-200,000	-0,004	-0,056
-360,883	42,250	-0,067	0,044
-359,869	50,081	0,088	-0,060
-358,854	800,000	-0,052	-0,115
-357,839	800,000	-0,021	0,065
-356,825	-163,356	-0,072	0,002
-355,810	-200,000	0,001	0,047
-354,796	64,775	0,128	0,094
-353,781	-25,359	-0,059	-0,025
-352,766	-200,000	-0,039	-0,165
-351,752	141,462	0,059	0,056
-350,737	354,951	0,085	0,123
-349,723	63,130	-0,039	-0,029
-348,708	800,000	-0,058	-0,125
-347,693	753,231	0,052	-0,102
-346,679	73,133	-0,092	-0,070
-345,664	800,000	0,063	-0,136
-344,650	52,406	-0,090	-0,062
-343,635	-64,728	-0,087	0,026
-342,620	91,594	0,088	-0,072
-341,606	96,275	-0,117	0,097
-340,591	532,435	-0,043	0,074
-339,577	-200,000	-0,018	0,138
-338,562	-200,000	-0,004	0,055
-337,548	51,118	0,073	0,050
-336,533	800,000	-0,056	0,127
-335,518	717,873	-0,025	0,048
-334,504	800,000	0,033	-0,083
-333,489	332,715	-0,095	0,134
-332,475	656,934	0,070	-0,132
-331,460	646,862	-0,039	-0,073
-330,445	-200,000	0,035	-0,178
-329,431	-60,055	0,098	0,030
-328,416	58,355	-0,107	0,076
-327,402	45,818	0,112	0,075
-326,387	-200,000	-0,030	-0,141
-325,372	-200,000	0,004	-0,029
-324,358	42,681	0,105	0,069
-323,343	665,543	-0,057	-0,107
-322,329	37,282	0,062	0,040
-321,314	73,639	-0,073	0,056
-320,299	-150,079	-0,009	0,001
-319,285	712,255	0,022	0,042
-318,270	305,917	-0,060	-0,082
-317,256	-200,000	-0,016	-0,120
-316,241	26,179	0,043	0,026
-315,226	-200,000	-0,002	0,065
-314,212	89,437	0,028	0,022
-313,197	800,000	0,041	0,119
-312,183	800,000	-0,018	0,048
-311,168	-200,000	-0,020	0,111
-310,153	95,767	-0,032	0,027
-309,139	154,486	0,096	-0,096
-308,124	-88,230	-0,030	0,006
-307,110	-73,590	0,178	0,047
-306,095	-85,194	0,036	-0,008
-305,080	-200,000	-0,005	0,101
-304,066	800,000	-0,034	0,073
-303,051	122,158	-0,040	-0,036
-302,037	800,000	-0,015	-0,040
-301,022	6,134	0,089	-0,048
-300,008	800,000	-0,047	0,140
-298,993	800,000	0,037	0,076
-297,978	-106,271	-0,032	-0,005
-296,964	-56,945	-0,139	0,044
-295,949	-200,000	-0,006	-0,027
-294,935	-78,994	-0,007	-0,002
-293,920	133,861	0,061	0,057
-292,905	-200,000	0,035	0,112
-291,891	-108,883	0,209	0,032
-290,876	800,000	-0,028	-0,087
-289,862	-23,070	-0,117	0,051
-288,847	-200,000	-0,014	-0,083
-287,832	24,784	0,020	0,012
-286,818	-123,532	0,130	0,015
-285,803	372,469	0,015	0,022
-284,789	800,000	0,050	-0,102
-283,774	215,910	0,033	0,039
-282,759	800,000	0,019	0,045
-281,745	-200,000	0,004	-0,062
-280,730	-98,738	0,029	0,005
-279,716	173,055	-0,012	-0,013
-278,701	-145,963	-0,044	-0,003
-277,686	-119,120	0,144	0,018
-276,672	19,823	-0,034	-0,020
-275,657	-25,026	-0,102	-0,044
-274,643	800,000	0,010	0,025
-273,628	79,836	-0,117	0,091
-272,613	422,079	-0,041	-0,064
-271,599	-200,000	0,003	-0,045
-270,584	800,000	0,023	0,064
-269,570	7,503	0,072	-0,039
-268,555	-200,000	0,002	0,008
-267,540	-4,445	-0,022	0,011
-266,526	28,834	0,079	0,048
-265,511	301,776	-0,123	0,165
-264,497	145,335	-0,087	-0,084
-263,482	-164,799	0,114	0,004
-262,467	741,260	-0,052	0,101
-261,453	800,000	-0,049	-0,102
-260,438	-33,333	0,067	-0,027
-259,424	117,051	-0,053	-0,047
-258,409	573,113	0,034	0,059
-257,395	-1,999	0,129	0,065
-256,380	-114,634	0,098	-0,013
-255,365	703,629	-0,038	0,072
-254,351	-87,976	0,100	0,022
-253,336	34,063	0,149	-0,094
-252,322	800,000	0,018	0,055
-251,307	800,000	-0,019	-0,052
-250,292	-0,326	0,029	0,015
-249,278	-28,534	0,205	0,085
-248,263	-57,551	-0,075	-0,024
-247,249	800,000	-0,028	0,059
-246,234	82,482	0,034	-0,027
-245,219	100,225	-0,050	0,042
-244,205	91,984	-0,117	0,095
-243,190	-200,000	-0,008	-0,060
-242,176	80,677	0,055	-0,043
-241,161	227,817	-0,067	-0,079
-240,146	573,581	0,024	-0,042
-239,132	800,000	-0,051	-0,157
-238,117	-11,536	-0,149	-0,071
-237,103	378,308	-0,067	-0,099
-236,088	800,000	0,049	-0,108
-235,073	2,522	0,094	0,049
-234,059	315,454	0,077	0,105
-233,044	-151,298	0,112	0,006
-232,030	268,626	-0,070	0,089
-231,015	466,962	0,044	-0,072
-230,000	-200,000	-0,003	-0,062
-228,986	-200,000	0,011	-0,040
-227,971	800,000	0,042	0,098
-226,957	-68,160	0,094	-0,026
-225,942	334,003	-0,043	0,060
-224,927	-200,000	0,007	-0,039
-223,913	800,000	-0,033	0,069
-222,898	-23,804	-0,180	0,078
-221,884	661,843	0,056	-0,104
-220,869	43,496	-0,034	0,022
-219,855	-9,766	-0,040	-0,019
-218,840	-69,367	-0,125	0,034
-217,825	800,000	0,030	0,066
-216,811	29,939	0,098	-0,060
-215,796	-200,000	-0,015	-0,206
-214,782	283,859	-0,031	0,040
-213,767	-124,163	0,080	-0,009
-212,752	-25,518	0,061	-0,026
-211,738	-121,745	0,031	-0,004
-210,723	212,676	0,041	0,046
-209,709	-200,000	0,013	0,072
-208,694	800,000	0,016	-0,044
-207,679	-200,000	0,011	0,058
-206,665	-200,000	0,007	0,046
-205,650	172,563	0,071	0,074
-204,636	310,299	-0,085	0,115
-203,621	98,080	0,054	-0,045
-202,606	-200,000	-0,011	-0,063
-201,592	-33,365	0,017	-0,007
-200,577	463,496	0,050	-0,080
-199,563	800,000	-0,021	-0,047
-198,548	57,913	-0,047	0,033
-197,533	49,185	0,086	0,058
-196,519	143,422	0,046	-0,044
-195,504	258,171	0,030	-0,038
-194,490	-6,752	-0,014	-0,007
-193,475	435,441	-0,063	-0,099
-192,460	800,000	-0,026	-0,052
-191,446	-61,089	0,028	0,008
-190,431	800,000	-0,055	0,140
-189,417	-43,844	0,228	0,082
-188,402	115,462	-0,080	0,070
-187,387	-200,000	-0,002	0,086
-186,373	-200,000	0,125	-0,000
-185,358	-200,000	0,021	0,086
-184,344	-143,068	0,136	-0,009
-183,329	174,645	-0,036	0,038
-182,315	94,750	-0,075	0,061
-181,300	-200,000	0,029	0,168
-180,285	-200,000	0,036	-0,160
-179,271	-100,162	-0,148	-0,026
-178,256	-200,000	-0,008	0,067
-177,242	33,339	0,125	0,078
-176,227	111,993	0,062	0,054
-175,212	-104,027	-0,092	0,015
-174,198	-200,000	-0,016	-0,099
-173,183	-52,388	-0,111	-0,037
-172,169	-200,000	-0,015	-0,115
-171,154	-200,000	-0,018	-0,106
-170,139	-200,000	-0,003	0,080
-169,125	-118,381	0,064	-0,008
-168,110	411,825	0,087	-0,134
-167,096	408,463	0,043	-0,066
-166,081	-51,595	-0,116	0,039
-165,066	61,614	-0,058	0,042
-164,052	-200,000	0,034	-0,144
-163,037	800,000	-0,039	-0,090
-162,023	236,760	0,039	0,046
-161,008	-81,703	0,077	-0,018
-159,993	295,079	0,013	-0,018
-158,979	311,495	0,056	0,076
-157,964	505,519	0,028	-0,048
-156,950	1,442	-0,127	-0,065
-155,935	-27,177	0,075	0,031
-154,920	7,616	0,044	0,024
-153,906	445,263	-0,073	0,117
-152,891	-106,634	0,088	-0,014
-151,877	28,397	-0,065	-0,040
-150,862	548,291	0,004	0,007
-149,847	800,000	-0,056	-0,157
-148,833	389,333	-0,079	0,118
-147,818	-200,000	-0,032	0,107
-146,804	-86,520	-0,087	-0,019
-145,789	152,949	-0,109	-0,108
-144,775	604,559	-0,030	-0,054
-143,760	-200,000	-0,009	0,071
-142,745	-200,000	-0,021	-0,224
-141,731	528,491	0,049	-0,084
-140,716	144,378	0,056	0,054
-139,702	369,610	-0,085	0,125
-138,687	-77,684	0,051	-0,013
-137,672	800,000	0,025	0,068
-136,658	31,881	-0,085	0,053
-135,643	451,365	0,045	0,071
-134,629	-200,000	-0,004	-0,030
-133,614	186,196	0,098	0,105
-132,599	346,902	-0,071	0,100
-131,585	173,391	0,044	0,046
-130,570	123,990	-0,056	-0,051
-129,556	-53,276	0,100	0,033
-128,541	-200,000	-0,014	-0,050
-127,526	-53,056	0,051	0,017
-126,512	-200,000	0,028	0,163
-125,497	588,870	-0,036	0,064
-124,483	-200,000	-0,020	0,098
-123,468	-144,840	0,047	-0,003
-122,453	-4,759	-0,025	-0,012
-121,439	121,241	0,059	0,053
-120,424	-200,000	0,006	0,067
-119,410	-42,280	0,170	-0,062
-118,395	23,855	0,126	0,074
-117,380	83,520	0,025	-0,019
-116,366	417,877	-0,091	0,141
-115,351	-10,790	-0,180	-0,085
-114,337	-76,477	-0,108	-0,027
-113,322	-79,203	-0,048	0,012
-112,307	-200,000	0,014	0,054
-111,293	117,291	0,028	-0,024
-110,278	-200,000	0,003	0,072
-109,264	800,000	-0,028	0,083
-108,249	154,356	-0,027	-0,026
-107,234	8,713	-0,061	-0,033
-106,220	-64,880	-0,108	0,031
-105,205	-200,000	0,006	-0,074
-104,191	73,245	0,068	-0,051
-103,176	-200,000	0,016	0,107
-102,162	304,738	0,102	0,136
-101,147	-45,736	-0,085	0,030
-100,132	800,000	-0,030	-0,064
-99,118	-200,000	0,031	-0,175
-98,103	15,819	0,147	-0,083
-97,089	-48,435	0,129	0,044
-96,074	-200,000	-0,005	0,082
-95,059	117,285	-0,031	-0,027
-94,045	96,329	-0,055	-0,045
-93,030	-4,254	0,102	0,050
-92,016	-115,297	-0,205	0,028
-91,001	7,642	0,085	-0,045
-89,986	32,802	0,055	0,034
-88,972	-200,000	-0,022	0,102
-87,957	800,000	0,052	0,120
-86,943	-134,057	-0,260	0,023
-85,928	800,000	0,047	-0,128
-84,913	-60,091	-0,081	-0,025
-83,899	800,000	-0,044	0,105
-82,884	-73,016	-0,077	0,020
-81,870	-200,000	-0,024	0,113
-80,855	-200,000	-0,014	0,097
-79,840	-36,886	0,058	0,022
-78,826	-200,000	0,048	-0,264
-77,811	-94,311	0,126	0,024
-76,797	-16,122	-0,044	0,020
-75,782	800,000	0,053	0,143
-74,767	90,530	-0,074	0,059
-73,753	-200,000	0,006	0,029
-72,738	-200,000	0,016	0,107
-71,724	-119,173	-0,047	0,006
-70,709	125,729	-0,121	-0,109
-69,694	318,094	-0,047	-0,064
-68,680	390,217	0,048	-0,072
-67,665	-200,000	0,041	0,134
-66,651	-200,000	-0,005	-0,019
-65,636	-167,342	-0,132	-0,004
-64,622	296,182	-0,089	-0,118
-63,607	173,996	-0,086	-0,089
-62,592	132,510	-0,067	-0,062
-61,578	-178,463	0,149	0,002
-60,563	800,000	0,036	0,078
-59,549	243,905	0,125	0,151
-58,534	19,209	-2,125	-1,221
-57,519	-200,000	-0,171	-0,752
-56,505	-200,000	-1,235	-5,021
-55,490	194,952	0,760	0,829
-54,476	800,000	5,205	11,530
-53,461	-200,000	17,716	289,135
-52,446	800,000	726,745	2226,174
-51,432	535,177	1639,656	2800,630
-50,417	109,238	1629,328	1398,764
-49,403	72,804	1283,358	960,192
-48,388	31,386	1025,974	630,814
-47,373	19,858	988,079	569,548
-46,359	18,201	976,121	557,206
-45,344	15,481	971,973	545,933
-44,330	15,712	970,468	545,820
-43,315	15,246	968,755	543,317
-42,300	15,174	967,745	542,494
-41,286	15,183	966,644	541,881
-40,271	15,154	965,856	541,324
-39,257	15,207	964,785	540,875
-38,242	15,162	964,242	540,404
-37,227	15,203	963,344	540,013
-36,213	15,192	962,490	539,475
-35,198	15,151	961,421	538,724
-34,184	15,214	960,700	538,502
-33,169	15,195	959,708	537,862
-32,154	15,193	958,879	537,370
-31,140	15,207	957,904	536,847
-30,125	15,211	957,330	536,519
-29,111	15,123	956,583	535,793
-28,096	15,205	955,777	535,587
-27,082	15,148	955,286	535,107
-26,067	15,168	954,331	534,614
-25,052	15,159	953,688	534,205
-24,038	15,163	952,864	533,732
-23,023	15,170	952,230	533,380
-22,009	15,231	951,482	533,136
-20,994	15,170	951,184	532,750
-19,979	15,194	950,329	532,328
-18,965	15,255	949,647	532,119
-17,950	15,158	949,163	531,520
-16,936	15,155	948,557	531,149
-15,921	15,159	947,798	530,715
-14,906	15,140	946,988	530,179
-13,892	15,099	946,284	529,634
-12,877	15,073	945,957	529,347
-11,863	15,024	945,272	528,788
-10,848	15,054	944,838	528,618
-9,833	15,130	944,199	528,481
-8,819	15,130	943,732	528,199
-7,804	15,114	942,899	527,662
-6,790	15,098	942,467	527,348
-5,775	15,103	941,792	526,966
-4,760	15,168	941,155	526,793
-3,746	15,063	940,620	526,139
-2,731	14,957	939,786	525,317
-1,717	14,925	939,247	524,896
-0,702	14,992	938,503	524,670
0,313	14,715	938,087	524,356
1,327	18,112	935,909	533,779
2,342	27,314	789,781	474,670
3,356	23,884	445,029	262,363
4,371	-5,590	296,139	145,067
5,386	-9,550	277,872	132,345
6,400	-10,728	272,065	128,471
7,415	-11,219	269,848	126,959
8,429	-11,105	268,476	126,407
9,444	-10,863	267,516	126,166
10,459	-10,949	266,913	125,792
11,473	-11,125	266,232	125,299
12,488	-11,159	265,790	125,049
13,502	-11,326	265,109	124,566
14,517	-11,304	264,705	124,385
15,531	-11,386	264,290	124,104
16,546	-11,281	264,106	124,102
17,561	-11,451	263,687	123,740
18,575	-11,144	263,391	123,868
19,590	-11,291	262,925	123,504
20,604	-11,048	262,618	123,568
21,619	-11,321	262,369	123,195
22,634	-11,275	261,931	123,020
23,648	-11,335	261,678	122,835
24,663	-11,380	261,298	122,607
25,677	-11,453	261,248	122,507
26,692	-11,233	260,843	122,502
27,707	-11,298	260,556	122,298
28,721	-11,327	260,203	122,096
29,736	-11,431	260,041	121,917
30,750	-11,461	259,840	121,785
31,765	-11,207	259,503	121,841
32,780	-11,394	259,326	121,582
33,794	-11,377	259,229	121,540
34,809	-11,244	258,774	121,434
35,823	-11,246	258,559	121,321
36,838	-11,468	258,465	121,070
37,853	-11,306	258,258	121,104
38,867	-11,625	257,848	120,621
39,882	-11,548	257,544	120,535
40,896	-11,491	257,379	120,498
41,911	-11,419	257,156	120,446
42,926	-11,502	256,958	120,269
43,940	-11,658	256,760	120,029
44,955	-11,625	256,486	119,920
45,969	-11,754	256,079	119,606
46,984	-11,899	256,004	119,434
47,999	-12,132	255,603	119,032
49,013	-12,194	255,435	118,890
50,028	-12,259	255,240	118,731
51,042	-12,298	254,959	118,556
52,057	-12,278	254,585	118,389
53,071	-12,316	254,550	118,330
54,086	-12,151	254,339	118,364
55,101	-11,888	254,103	118,471
56,115	-11,904	254,132	118,460
57,130	-11,401	254,130	118,885
58,144	-11,168	253,751	118,899
59,159	-11,261	253,692	118,780
60,174	-11,114	253,385	118,752
61,188	-11,053	253,112	118,666
62,203	-11,260	253,020	118,434
63,217	-11,396	252,930	118,264
64,232	-11,446	252,685	118,097
65,247	-11,353	252,336	118,003
66,261	-11,260	252,075	117,949
67,276	-11,579	251,881	117,575
68,290	-11,730	251,551	117,281
69,305	-11,832	251,291	117,062
70,320	-11,772	250,977	116,956
71,334	-11,530	251,086	117,204
72,349	-11,068	250,848	117,477
73,363	-11,252	250,744	117,260
74,378	-11,138	250,552	117,257
75,393	-11,322	250,215	116,933
76,407	-11,272	249,993	116,861
77,422	-11,276	249,878	116,793
78,436	-11,468	249,786	116,576
79,451	-11,187	249,432	116,639
80,466	-11,575	249,183	116,184
81,480	-11,693	248,926	115,954
82,495	-11,527	248,570	115,918
83,509	-11,497	248,544	115,921
84,524	-11,618	248,283	115,687
85,539	-11,772	247,937	115,385
86,553	-11,615	247,904	115,492
87,568	-11,730	247,757	115,316
88,582	-11,670	247,456	115,216
89,597	-11,629	247,275	115,156
90,611	-11,399	247,167	115,289
91,626	-11,433	247,082	115,211
92,641	-11,524	246,869	115,024
93,655	-11,583	246,674	114,874
94,670	-11,591	246,421	114,739
95,684	-11,408	246,258	114,806
96,699	-11,651	246,212	114,572
97,714	-11,734	245,950	114,370
98,728	-11,842	245,686	114,146
99,743	-11,707	245,421	114,126
100,757	-11,861	245,263	113,914
101,772	-11,790	244,981	113,832
102,787	-11,770	244,862	113,783
103,801	-11,811	244,824	113,722
104,816	-11,462	244,554	113,876
105,830	-11,507	244,531	113,818
106,845	-11,421	244,287	113,765
107,860	-11,473	244,081	113,615
108,874	-11,613	243,684	113,306
109,889	-11,550	243,522	113,271
110,903	-11,608	243,395	113,155
111,918	-11,813	243,269	112,917
112,933	-11,624	243,121	112,994
113,947	-11,565	242,982	112,968
114,962	-11,394	242,831	113,028
115,976	-11,577	242,671	112,793
116,991	-11,549	242,463	112,709
118,006	-11,372	242,185	112,716
119,020	-11,460	242,046	112,569
120,035	-11,361	241,957	112,598
121,049	-11,227	241,779	112,616
122,064	-11,399	241,550	112,358
123,079	-11,423	241,449	112,281
124,093	-11,647	241,163	111,955
125,108	-11,838	241,017	111,722
126,122	-12,119	240,677	111,325
127,137	-11,871	240,389	111,384
128,151	-11,988	240,393	111,280
129,166	-11,787	240,219	111,354
130,181	-11,795	240,005	111,238
131,195	-11,965	239,908	111,044
132,210	-11,673	239,619	111,138
133,224	-11,646	239,640	111,160
134,239	-11,540	239,438	111,142
135,254	-11,336	239,128	111,153
136,268	-11,768	238,937	110,705
137,283	-11,866	238,710	110,511
138,297	-12,146	238,444	110,152
139,312	-11,906	238,152	110,200
140,327	-11,618	238,174	110,433
141,341	-11,243	238,210	110,742
142,356	-11,134	237,982	110,714
143,370	-11,139	237,792	110,612
144,385	-11,324	237,784	110,449
145,400	-11,182	237,557	110,448
146,414	-11,076	237,374	110,439
147,429	-11,307	237,165	110,146
148,443	-11,092	236,956	110,211
149,458	-11,365	236,953	109,982
150,473	-11,290	236,611	109,873
151,487	-11,253	236,434	109,811
152,502	-11,161	236,411	109,864
153,516	-10,943	236,143	109,903
154,531	-11,229	236,064	109,628
155,546	-11,149	235,759	109,540
156,560	-11,146	235,552	109,438
157,575	-11,240	235,245	109,210
158,589	-11,312	235,154	109,101
159,604	-11,225	235,313	109,234
160,619	-11,137	234,931	109,116
161,633	-10,663	234,764	109,405
162,648	-10,911	234,742	109,189
163,662	-11,147	234,615	108,933
164,677	-11,348	234,276	108,607
165,692	-11,073	234,149	108,755
166,706	-11,161	234,153	108,679
167,721	-10,716	233,931	108,917
168,735	-11,080	233,775	108,547
169,750	-11,112	233,635	108,448
170,764	-11,212	233,600	108,342
171,779	-10,985	233,459	108,447
172,794	-11,006	233,151	108,277
173,808	-11,151	232,826	108,003
174,823	-11,741	232,653	107,450
175,837	-11,786	232,306	107,245
176,852	-11,343	232,377	107,615
177,867	-11,145	232,372	107,758
178,881	-10,950	232,231	107,836
179,896	-11,045	232,031	107,660
180,910	-11,069	231,919	107,579
181,925	-10,947	231,668	107,548
182,940	-11,145	231,513	107,312
183,954	-11,028	231,378	107,332
184,969	-10,861	231,185	107,362
185,983	-10,744	231,233	107,466
186,998	-10,813	231,120	107,350
188,013	-10,777	230,774	107,208
189,027	-10,767	230,633	107,140
190,042	-10,851	230,547	107,026
191,056	-10,910	230,379	106,892
192,071	-10,849	230,185	106,841
193,086	-11,083	229,960	106,545
194,100	-10,815	229,891	106,711
195,115	-11,205	229,407	106,176
196,129	-11,399	229,444	106,034
197,144	-6,222	231,385	110,950
198,159	-0,367	233,011	116,295
199,173	2,867	233,774	119,194
200,188	3,156	233,881	119,464
201,202	3,479	233,480	119,500
202,217	3,447	233,481	119,465
203,232	3,836	233,245	119,637
204,246	3,524	233,248	119,385
205,261	3,760	233,053	119,458
206,275	3,777	232,983	119,424
207,290	3,984	232,651	119,404
208,304	4,061	232,702	119,480
209,319	3,842	232,443	119,166
210,334	3,778	232,378	119,072
211,348	3,545	231,910	118,642
212,363	3,311	231,675	118,330
213,377	3,041	231,480	118,012
214,392	3,093	231,293	117,946
215,407	3,160	231,234	117,957
216,421	3,095	231,317	117,939
217,436	3,317	231,057	117,966
218,450	2,824	230,699	117,394
219,465	2,789	230,640	117,327
220,480	3,062	230,437	117,423
221,494	2,990	230,390	117,333
222,509	3,015	230,348	117,320
223,523	3,023	230,160	117,220
224,538	2,941	229,887	117,007
225,553	2,922	229,835	116,956
226,567	3,120	229,789	117,074
227,582	3,240	229,680	117,100
228,596	3,468	229,520	117,182
229,611	3,164	229,371	116,863
230,626	2,939	229,106	116,546
231,640	3,084	228,832	116,507
232,655	3,203	228,868	116,606
233,669	3,625	228,853	116,909
234,684	3,700	228,670	116,862
235,699	3,372	228,493	116,512
236,713	3,116	228,271	116,194
237,728	3,132	228,051	116,084
238,742	3,174	227,778	115,966
239,757	3,046	227,830	115,885
240,772	3,011	227,578	115,720
241,786	3,144	227,358	115,698
242,801	3,131	227,489	115,745
243,815	3,507	227,206	115,875
244,830	3,519	227,045	115,792
245,844	3,305	226,852	115,521
246,859	3,163	226,642	115,297
247,874	3,232	226,581	115,308
248,888	3,202	226,598	115,283
249,903	3,284	226,354	115,211
250,917	3,209	226,154	115,042
251,932	3,109	226,026	114,892
252,947	2,935	225,796	114,634
253,961	2,939	225,674	114,565
254,976	2,946	225,604	114,525
255,990	3,358	225,436	114,738
257,005	3,311	225,187	114,566
258,020	3,180	225,207	114,468
259,034	3,480	225,043	114,598
260,049	3,250	224,932	114,360
261,063	3,604	224,580	114,435
262,078	3,484	224,578	114,334
263,093	3,480	224,498	114,280
264,107	3,375	224,360	114,121
265,122	3,554	224,146	114,136
266,136	3,736	224,164	114,270
267,151	3,332	224,137	113,945
268,166	3,216	223,683	113,618
269,180	2,845	223,480	113,230
270,195	2,977	223,233	113,192
271,209	3,001	223,199	113,183
272,224	3,374	223,122	113,410
273,239	3,299	222,956	113,260
274,253	3,103	222,870	113,061
275,268	2,785	222,627	112,693
276,282	2,759	222,588	112,644
277,297	2,894	222,337	112,607
278,312	2,954	222,237	112,590
279,326	3,055	222,145	112,607
280,341	3,091	221,987	112,544
281,355	3,286	221,898	112,633
282,370	3,141	221,705	112,417
283,384	3,012	221,467	112,192
284,399	2,595	221,333	111,809
285,414	2,843	221,138	111,882
286,428	3,075	221,061	112,003
287,443	3,317	220,959	112,119
288,457	3,245	220,817	111,984
289,472	2,961	220,655	111,684
290,487	2,754	220,418	111,403
291,501	2,644	220,221	111,213
292,516	2,684	220,140	111,191
293,530	2,946	220,070	111,338
294,545	2,853	219,867	111,157
295,560	3,159	219,771	111,321
296,574	3,156	219,601	111,223
297,589	3,143	219,555	111,180
298,603	3,365	219,469	111,288
299,618	3,138	219,298	111,026
300,633	3,206	219,109	110,970
301,647	3,150	219,175	110,953
302,662	3,458	218,917	111,036
303,676	3,257	218,980	110,912
304,691	3,253	218,665	110,740
305,706	3,333	218,582	110,746
306,720	3,424	218,229	110,623
307,735	3,098	218,151	110,338
308,749	2,919	218,009	110,127
309,764	3,171	217,865	110,226
310,779	3,454	217,809	110,392
311,793	3,250	217,566	110,112
312,808	3,086	217,492	109,947
313,822	3,088	217,372	109,878
314,837	3,228	217,079	109,820
315,852	3,003	217,023	109,621
316,866	3,188	216,956	109,711
317,881	3,299	216,886	109,745
318,895	3,486	216,637	109,743
319,910	2,996	216,428	109,277
320,925	2,938	216,212	109,116
321,939	2,552	216,125	108,787
322,954	2,819	216,034	108,922
323,968	3,412	215,972	109,304
324,983	3,173	215,984	109,130
325,997	3,239	215,794	109,071
327,012	3,103	215,572	108,853
328,027	3,127	215,487	108,818
329,041	3,365	215,527	108,996
330,056	3,345	215,252	108,834
331,070	2,891	214,734	108,240
332,085	2,729	214,725	108,112
333,100	3,167	214,714	108,407
334,114	3,457	214,563	108,526
335,129	3,349	214,469	108,393
336,143	3,222	214,315	108,215
337,158	3,114	214,229	108,086
338,173	3,300	214,062	108,124
339,187	2,975	213,989	107,847
340,202	3,000	213,648	107,683
341,216	2,643	213,568	107,382
342,231	3,011	213,521	107,608
343,246	2,922	213,318	107,433
344,260	3,083	213,318	107,538
345,275	2,946	213,252	107,398
346,289	3,291	212,993	107,500
347,304	3,292	212,866	107,427
348,319	3,224	212,750	107,311
349,333	3,105	212,558	107,122
350,348	3,371	212,408	107,223
351,362	3,315	212,354	107,147
352,377	3,387	212,177	107,098
353,392	3,331	212,016	106,969
354,406	3,289	211,937	106,890
355,421	195,538	1340,323	1417,703
356,435	156,214	1477,776	1417,689
