DTS Sentinel unit serial number:	SN410029Multiplexer serial number:	ORYXHardware model number:	OX2-SRSoftware version number:	ORYX F/W v4,00 Oryx Data Collector v3.7.2.0data status	okinstallation	B6 Nyhavnadifferential loss correction	single-endedforward channel	channel 2reverse channel	N/Adate	2023/12/10time	09:30:08forward acquisition time	300,00reverse acquisition time	0,00gamma	499,1914k internal	0,3123k external	0,3123temperature offset calibration	1,0000default loss term (dB/km)	0,3820temperature slope calibration	1,0000multiplexer offset coefficient	1,0000multiplexer slope coefficient	1,0000fibre end	0,00T internal ref (°C)	22,55T ext. ref 1 (°C)	6,31T ext. ref 2 (°C)	6,32length (m)	temperature (°C)	Stokes	anti-Stokes-744,400	12,125	0,063	-0,036
-743,385	54,146	-0,191	0,137
-742,371	-136,681	0,067	0,006
-741,356	526,988	-0,098	0,172
-740,342	204,858	-0,083	0,096
-739,327	668,094	-0,093	0,179
-738,312	119,592	0,044	0,041
-737,298	-2,980	-0,125	0,065
-736,283	69,189	0,084	-0,064
-735,269	150,676	-0,080	0,082
-734,254	-6,177	0,102	-0,052
-733,239	-98,451	-0,417	-0,079
-732,225	-188,443	0,123	0,001
-731,210	111,515	-0,042	-0,038
-730,196	-73,777	-0,097	-0,026
-729,181	-11,819	-0,117	-0,057
-728,167	24,379	0,047	-0,029
-727,152	-35,819	-0,080	-0,032
-726,137	-12,742	0,090	0,043
-725,123	251,679	-0,024	0,030
-724,108	273,838	-0,040	-0,052
-723,094	-175,623	-0,029	0,001
-722,079	29,141	0,043	0,027
-721,064	-200,000	-0,013	-0,148
-720,050	800,000	-0,072	-0,148
-719,035	-132,980	0,064	0,006
-718,021	-57,888	-0,100	-0,032
-717,006	-61,650	-0,098	-0,030
-715,991	197,077	-0,088	-0,100
-714,977	-200,000	0,046	-0,152
-713,962	800,000	-0,045	-0,118
-712,948	779,379	-0,013	0,026
-711,933	10,207	-0,126	0,071
-710,918	-200,000	0,010	-0,098
-709,904	-200,000	0,025	-0,143
-708,889	800,000	0,037	-0,099
-707,875	781,466	0,064	-0,131
-706,860	9,158	0,080	0,045
-705,845	-106,369	0,055	-0,009
-704,831	123,951	-0,032	0,030
-703,816	800,000	-0,021	0,060
-702,802	172,702	-0,049	-0,053
-701,787	-200,000	-0,014	0,062
-700,772	800,000	-0,048	-0,141
-699,758	-200,000	-0,018	-0,121
-698,743	63,986	0,131	0,098
-697,729	63,921	-0,024	0,018
-696,714	-154,600	-0,121	-0,006
-695,699	-150,401	-0,024	0,001
-694,685	140,556	-0,081	-0,080
-693,670	-200,000	0,017	-0,077
-692,656	-200,000	-0,024	-0,123
-691,641	105,663	0,147	0,130
-690,627	-200,000	0,009	0,084
-689,612	447,504	-0,016	0,026
-688,597	-200,000	0,011	-0,068
-687,583	65,292	-0,053	-0,040
-686,568	388,601	-0,059	-0,092
-685,554	800,000	-0,029	0,073
-684,539	119,085	0,107	0,098
-683,524	-81,085	-0,050	0,012
-682,510	51,320	-0,089	-0,063
-681,495	-200,000	-0,013	0,221
-680,481	113,032	-0,072	-0,065
-679,466	75,377	-0,064	-0,050
-678,451	800,000	0,009	0,021
-677,437	-73,238	0,094	0,025
-676,422	-200,000	-0,018	0,109
-675,408	-44,302	-0,137	-0,051
-674,393	354,426	-0,105	0,156
-673,378	164,034	-0,068	-0,072
-672,364	-34,459	-0,131	0,053
-671,349	800,000	-0,049	-0,122
-670,335	672,897	0,033	-0,064
-669,320	-123,635	-0,020	0,002
-668,305	220,766	0,070	0,083
-667,291	-200,000	0,032	0,109
-666,276	-200,000	0,012	-0,095
-665,262	-36,554	0,012	-0,005
-664,247	196,189	0,071	0,080
-663,232	-92,341	-0,084	-0,017
-662,218	-83,265	0,039	-0,009
-661,203	-60,711	0,144	0,045
-660,189	107,222	-0,036	0,032
-659,174	-45,480	-0,184	-0,067
-658,159	24,393	-0,067	-0,041
-657,145	-200,000	-0,003	-0,092
-656,130	668,074	-0,052	0,100
-655,116	-200,000	0,026	0,087
-654,101	800,000	-0,024	0,051
-653,086	232,353	-0,058	-0,071
-652,072	144,412	-0,043	0,043
-651,057	161,466	-0,046	0,048
-650,043	336,897	0,052	0,075
-649,028	306,217	-0,120	-0,166
-648,014	6,749	0,019	-0,010
-646,999	800,000	0,067	0,142
-645,984	125,470	-0,029	0,028
-644,970	278,434	-0,105	-0,139
-643,955	-100,041	0,054	0,010
-642,941	-116,387	-0,123	-0,017
-641,926	-63,638	0,044	0,013
-640,911	16,984	0,106	0,062
-639,897	98,974	0,154	0,132
-638,882	-200,000	-0,008	0,106
-637,868	61,437	-0,018	-0,014
-636,853	113,167	-0,068	-0,061
-635,838	484,731	-0,064	-0,109
-634,824	192,807	0,098	-0,110
-633,809	-200,000	0,003	-0,035
-632,795	-200,000	-0,047	-0,174
-631,780	-200,000	-0,019	0,075
-630,765	800,000	0,021	0,054
-629,751	-200,000	0,020	-0,131
-628,736	-4,120	-0,092	-0,047
-627,722	481,511	-0,046	0,077
-626,707	-71,830	-0,102	-0,028
-625,692	-200,000	-0,025	-0,081
-624,678	-57,232	-0,046	-0,015
-623,663	475,028	0,048	0,080
-622,649	-200,000	0,002	-0,029
-621,634	103,724	-0,107	-0,093
-620,619	200,390	-0,021	0,024
-619,605	-37,707	0,197	-0,077
-618,590	406,813	0,042	0,065
-617,576	-200,000	0,003	0,091
-616,561	-200,000	-0,011	-0,144
-615,546	134,970	0,028	0,027
-614,532	800,000	-0,027	-0,061
-613,517	-26,022	-0,111	-0,048
-612,503	-39,436	0,077	0,030
-611,488	-200,000	0,019	-0,088
-610,474	-200,000	0,039	0,145
-609,459	800,000	-0,074	0,164
-608,444	-2,771	0,106	0,055
-607,430	-105,670	-0,134	-0,022
-606,415	-16,717	0,072	-0,034
-605,401	800,000	0,010	-0,032
-604,386	129,650	-0,102	0,096
-603,371	41,380	0,010	-0,007
-602,357	-129,996	0,069	-0,007
-601,342	-12,233	-0,038	0,018
-600,328	-200,000	0,005	-0,029
-599,313	-200,000	-0,015	0,077
-598,298	-200,000	0,018	-0,070
-597,284	614,661	-0,044	-0,082
-596,269	136,483	-0,099	0,096
-595,255	-185,795	-0,043	0,000
-594,240	-200,000	-0,018	-0,060
-593,225	17,405	-0,113	0,066
-592,211	686,656	-0,012	0,024
-591,196	800,000	0,053	0,123
-590,182	146,535	-0,078	0,077
-589,167	71,506	0,051	0,040
-588,152	604,916	-0,048	-0,088
-587,138	-109,085	-0,062	0,010
-586,123	405,751	-0,045	-0,070
-585,109	543,908	-0,080	-0,143
-584,094	400,432	0,053	0,082
-583,079	74,016	-0,030	0,023
-582,065	54,808	0,043	0,031
-581,050	800,000	-0,029	-0,090
-580,036	-47,847	-0,126	-0,045
-579,021	-167,869	-0,037	-0,001
-578,006	800,000	-0,045	-0,100
-576,992	20,245	-0,129	0,077
-575,977	271,416	0,081	-0,106
-574,963	67,386	-0,011	0,009
-573,948	-97,379	-0,037	0,007
-572,934	-200,000	0,004	-0,058
-571,919	82,664	-0,040	-0,032
-570,904	57,075	0,093	0,067
-569,890	17,235	0,034	-0,020
-568,875	-149,455	0,106	-0,006
-567,861	-73,076	-0,124	-0,033
-566,846	-63,552	0,036	-0,011
-565,831	127,973	0,008	-0,007
-564,817	501,127	-0,035	-0,059
-563,802	148,529	-0,081	-0,081
-562,788	62,178	-0,073	-0,054
-561,773	-69,886	-0,087	-0,024
-560,758	119,221	-0,084	-0,077
-559,744	-62,576	0,074	-0,023
-558,729	-200,000	-0,003	0,029
-557,715	355,843	-0,020	0,029
-556,700	-200,000	-0,004	-0,217
-555,685	-123,314	-0,135	0,016
-554,671	136,476	0,064	0,062
-553,656	-71,736	0,185	0,051
-552,642	800,000	-0,038	0,093
-551,627	-94,211	0,138	-0,028
-550,612	-22,727	-0,104	-0,046
-549,598	-200,000	0,008	0,105
-548,583	-33,243	-0,072	0,029
-547,569	-200,000	-0,000	0,019
-546,554	676,827	0,044	0,084
-545,539	405,153	0,061	0,095
-544,525	-162,616	0,047	-0,002
-543,510	344,374	-0,048	0,070
-542,496	-59,429	0,119	0,038
-541,481	46,973	0,068	0,046
-540,466	-200,000	-0,052	0,182
-539,452	36,184	0,100	-0,065
-538,437	197,075	0,018	-0,021
-537,423	-143,571	-0,100	0,007
-536,408	-80,078	0,131	0,032
-535,393	-7,260	0,041	-0,021
-534,379	-200,000	0,023	-0,239
-533,364	94,272	-0,065	-0,054
-532,350	-94,904	0,065	0,013
-531,335	-144,162	0,028	0,002
-530,321	-200,000	0,012	0,058
-529,306	-165,578	-0,035	0,001
-528,291	169,944	-0,100	0,106
-527,277	348,960	-0,042	-0,061
-526,262	-145,559	0,039	-0,003
-525,248	-200,000	0,032	0,113
-524,233	125,179	-0,123	-0,115
-523,218	288,806	-0,031	-0,042
-522,204	-22,619	-0,010	0,004
-521,189	295,661	-0,043	0,058
-520,175	800,000	-0,041	-0,129
-519,160	800,000	-0,036	-0,117
-518,145	-17,302	-0,051	-0,024
-517,131	-24,039	0,033	0,015
-516,116	-147,973	-0,057	-0,003
-515,102	87,110	-0,022	0,018
-514,087	800,000	-0,040	0,096
-513,072	6,570	-0,040	-0,022
-512,058	-200,000	0,021	0,107
-511,043	-124,865	0,117	-0,013
-510,029	488,814	0,069	-0,116
-509,014	81,613	0,033	0,026
-507,999	-113,019	0,099	0,014
-506,985	800,000	0,023	0,068
-505,970	800,000	0,028	-0,074
-504,956	800,000	0,048	0,119
-503,941	-200,000	-0,022	-0,092
-502,926	53,969	0,046	-0,032
-501,912	-110,569	0,084	0,013
-500,897	800,000	0,026	-0,062
-499,883	387,418	-0,063	0,096
-498,868	652,273	-0,046	0,088
-497,853	-193,622	-0,170	-0,001
-496,839	-142,065	0,060	0,004
-495,824	34,395	-0,033	0,021
-494,810	800,000	0,033	-0,083
-493,795	481,490	-0,051	-0,085
-492,781	-147,885	-0,074	0,004
-491,766	124,644	-0,135	-0,126
-490,751	-48,777	0,080	0,028
-489,737	-200,000	0,024	0,170
-488,722	-150,433	-0,161	0,009
-487,708	-58,684	0,145	-0,046
-486,693	-200,000	-0,011	-0,104
-485,678	-68,807	-0,033	0,009
-484,664	51,717	-0,100	0,070
-483,649	115,363	-0,033	0,030
-482,635	-200,000	-0,006	-0,025
-481,620	-44,889	0,065	-0,024
-480,605	65,676	0,195	-0,145
-479,591	-200,000	0,051	-0,192
-478,576	-141,641	-0,122	0,009
-477,562	398,803	0,047	-0,073
-476,547	151,557	0,057	-0,057
-475,532	184,867	-0,039	-0,043
-474,518	12,316	0,070	-0,040
-473,503	242,460	0,089	-0,111
-472,489	-200,000	0,020	-0,075
-471,474	-200,000	0,002	-0,058
-470,459	483,672	-0,054	0,090
-469,445	-200,000	0,013	0,046
-468,430	800,000	0,055	-0,134
-467,416	207,892	0,081	-0,093
-466,401	-200,000	0,013	0,135
-465,386	392,228	0,050	0,077
-464,372	-200,000	0,003	0,053
-463,357	-79,812	0,099	-0,024
-462,343	800,000	-0,036	-0,102
-461,328	39,023	-0,126	-0,083
-460,313	555,974	-0,051	0,091
-459,299	114,844	0,045	0,041
-458,284	55,138	0,167	0,119
-457,270	262,642	-0,044	0,056
-456,255	-21,865	-0,030	0,013
-455,241	800,000	0,016	0,040
-454,226	-200,000	-0,003	-0,105
-453,211	43,634	-0,084	-0,057
-452,197	800,000	0,042	-0,087
-451,182	-91,867	0,075	0,015
-450,168	-200,000	-0,005	0,018
-449,153	-106,603	0,087	0,014
-448,138	-200,000	-0,020	-0,066
-447,124	-164,331	0,073	0,002
-446,109	83,582	0,052	0,042
-445,095	-200,000	-0,001	-0,091
-444,080	105,304	0,035	0,031
-443,065	-21,491	0,038	0,017
-442,051	-195,688	0,028	0,000
-441,036	-200,000	-0,021	-0,156
-440,022	48,437	0,054	-0,038
-439,007	199,545	0,054	-0,061
-437,992	-13,239	0,144	-0,068
-436,978	-200,000	-0,024	0,152
-435,963	103,512	-0,039	0,034
-434,949	261,075	0,056	0,071
-433,934	330,094	0,071	-0,102
-432,919	53,121	0,035	-0,025
-431,905	772,705	-0,017	0,035
-430,890	800,000	0,043	0,117
-429,876	800,000	0,055	-0,156
-428,861	-200,000	-0,010	-0,177
-427,846	83,355	0,034	-0,027
-426,832	76,933	0,060	-0,047
-425,817	-147,339	-0,099	0,006
-424,803	800,000	-0,007	0,016
-423,788	800,000	0,045	0,098
-422,773	717,657	-0,038	0,074
-421,759	-16,066	0,041	-0,019
-420,744	-42,517	-0,141	-0,052
-419,730	-200,000	0,001	-0,028
-418,715	-43,440	0,044	-0,016
-417,701	-68,883	-0,071	0,020
-416,686	-200,000	-0,022	0,081
-415,671	-200,000	-0,005	-0,116
-414,657	129,822	0,052	0,049
-413,642	416,252	-0,081	-0,127
-412,628	800,000	0,033	-0,103
-411,613	-15,426	-0,051	-0,024
-410,598	-62,820	0,088	-0,027
-409,584	-151,546	-0,068	-0,004
-408,569	-200,000	-0,015	-0,081
-407,555	472,130	0,041	0,068
-406,540	-200,000	-0,003	0,106
-405,525	800,000	-0,044	-0,100
-404,511	416,852	-0,085	-0,134
-403,496	-29,560	0,109	-0,046
-402,482	148,322	0,066	-0,066
-401,467	6,330	0,028	-0,015
-400,452	36,874	-0,147	0,095
-399,438	-90,679	-0,120	-0,025
-398,423	-60,516	-0,054	-0,017
-397,409	800,000	-0,005	0,013
-396,394	-200,000	0,039	-0,145
-395,379	-200,000	-0,000	0,100
-394,365	-84,777	0,171	0,039
-393,350	-172,509	0,210	0,005
-392,336	-200,000	0,015	0,144
-391,321	-69,842	0,070	-0,019
-390,306	-44,155	-0,022	-0,008
-389,292	800,000	-0,017	0,051
-388,277	-200,000	-0,013	0,096
-387,263	91,944	0,088	0,072
-386,248	800,000	-0,045	0,137
-385,233	204,029	0,031	0,036
-384,219	-200,000	-0,015	-0,070
-383,204	168,591	-0,094	0,099
-382,190	-200,000	0,020	0,085
-381,175	-200,000	0,015	0,068
-380,160	-4,052	0,064	0,033
-379,146	-200,000	-0,009	0,057
-378,131	93,866	0,138	0,115
-377,117	763,854	0,019	0,039
-376,102	800,000	-0,025	-0,052
-375,088	-126,020	-0,130	-0,014
-374,073	-174,636	-0,097	0,002
-373,058	-59,673	-0,015	0,005
-372,044	391,327	-0,029	0,045
-371,029	-138,508	0,074	0,006
-370,015	-123,824	-0,136	0,016
-369,000	-119,904	-0,084	-0,011
-367,985	-102,799	-0,052	-0,009
-366,971	66,819	0,043	0,032
-365,956	69,756	0,028	0,021
-364,942	15,593	-0,112	-0,065
-363,927	299,856	-0,026	0,036
-362,912	-92,269	-0,090	-0,018
-361,898	425,792	-0,042	-0,067
-360,883	541,967	-0,091	-0,160
-359,869	147,508	-0,032	0,032
-358,854	85,571	0,088	0,071
-357,839	800,000	0,057	0,168
-356,825	-200,000	0,012	0,090
-355,810	-73,826	-0,020	-0,005
-354,796	-126,824	-0,107	0,011
-353,781	-46,293	-0,023	0,008
-352,766	800,000	-0,076	-0,190
-351,752	-112,755	0,111	-0,016
-350,737	800,000	0,026	-0,057
-349,723	-118,350	0,072	-0,009
-348,708	-200,000	0,035	0,137
-347,693	800,000	-0,019	0,041
-346,679	524,767	0,027	-0,047
-345,664	800,000	-0,016	0,038
-344,650	-71,907	0,029	0,008
-343,635	411,785	-0,056	-0,088
-342,620	-102,856	0,063	0,011
-341,606	236,861	-0,143	0,174
-340,591	-200,000	0,007	0,073
-339,577	509,070	-0,053	-0,090
-338,562	-90,585	-0,148	-0,031
-337,548	-78,280	0,058	-0,015
-336,533	4,175	0,024	-0,013
-335,518	-48,540	-0,046	-0,016
-334,504	800,000	0,043	0,121
-333,489	34,803	-0,087	0,056
-332,475	-200,000	0,028	0,208
-331,460	-133,975	0,046	0,004
-330,445	18,345	-0,064	-0,037
-329,431	-40,180	0,154	0,058
-328,416	800,000	0,011	0,025
-327,402	-89,342	-0,121	-0,026
-326,387	-84,846	-0,061	-0,014
-325,372	800,000	0,046	-0,116
-324,358	800,000	0,016	-0,033
-323,343	-200,000	-0,002	-0,074
-322,329	-200,000	-0,003	-0,034
-321,314	-136,144	0,090	0,008
-320,299	32,062	0,053	-0,033
-319,285	369,186	0,046	0,069
-318,270	371,311	0,094	-0,140
-317,256	429,412	-0,086	-0,136
-316,241	-160,062	-0,067	0,003
-315,226	-18,974	0,122	0,056
-314,212	98,621	0,161	0,136
-313,197	-200,000	-0,005	-0,023
-312,183	-34,864	-0,011	0,004
-311,168	800,000	0,019	0,059
-310,153	-200,000	-0,001	-0,016
-309,139	55,225	-0,113	-0,080
-308,124	-38,636	0,086	0,033
-307,110	-200,000	-0,002	0,136
-306,095	-135,909	0,115	0,010
-305,080	800,000	0,031	-0,092
-304,066	-200,000	-0,006	-0,038
-303,051	800,000	0,044	0,136
-302,037	-86,885	-0,043	0,010
-301,022	69,217	-0,043	-0,032
-300,008	-200,000	-0,002	-0,009
-298,993	-200,000	-0,024	0,149
-297,978	143,114	0,071	0,069
-296,964	-200,000	-0,013	0,042
-295,949	9,291	0,062	-0,035
-294,935	-95,368	-0,134	-0,026
-293,920	-80,290	0,016	-0,004
-292,905	495,932	0,085	-0,144
-291,891	-200,000	-0,015	0,082
-290,876	799,271	0,066	-0,134
-289,862	-200,000	-0,011	0,039
-288,847	-200,000	-0,018	-0,127
-287,832	444,129	0,007	0,011
-286,818	800,000	0,009	-0,027
-285,803	800,000	-0,050	0,145
-284,789	-200,000	0,007	0,060
-283,774	-200,000	0,006	0,093
-282,759	29,912	0,057	0,036
-281,745	88,719	-0,103	-0,084
-280,730	-134,184	-0,017	-0,001
-279,716	35,903	-0,044	0,029
-278,701	-49,468	0,035	-0,012
-277,686	52,025	-0,080	0,055
-276,672	800,000	0,024	0,070
-275,657	-100,354	-0,109	-0,020
-274,643	-140,591	0,063	-0,005
-273,628	-81,114	-0,196	-0,047
-272,613	-145,311	-0,029	0,002
-271,599	-154,766	0,073	0,003
-270,584	-101,740	0,059	0,010
-269,570	800,000	-0,019	0,059
-268,555	-58,848	-0,074	0,023
-267,540	-200,000	0,016	-0,095
-266,526	312,333	0,036	-0,049
-265,511	60,352	-0,129	0,093
-264,497	-200,000	0,037	0,171
-263,482	445,713	0,100	0,162
-262,467	-200,000	0,004	0,091
-261,453	-200,000	-0,000	-0,005
-260,438	375,655	-0,069	0,103
-259,424	800,000	0,073	0,175
-258,409	378,623	-0,073	-0,109
-257,395	-200,000	-0,004	-0,093
-256,380	75,096	-0,082	0,063
-255,365	-15,539	0,077	0,036
-254,351	-200,000	0,009	0,077
-253,336	-113,401	0,018	-0,003
-252,322	-200,000	-0,014	0,061
-251,307	157,979	-0,048	-0,049
-250,292	800,000	0,047	0,096
-249,278	-200,000	-0,002	0,120
-248,263	-200,000	-0,007	0,123
-247,249	18,364	0,033	-0,019
-246,234	51,519	0,094	-0,065
-245,219	61,999	-0,048	-0,035
-244,205	-200,000	0,005	-0,024
-243,190	-200,000	0,008	-0,074
-242,176	514,802	0,051	0,088
-241,161	-89,687	-0,107	0,023
-240,146	522,926	0,030	0,051
-239,132	-165,036	-0,137	0,004
-238,117	800,000	-0,022	-0,070
-237,103	202,543	0,024	-0,027
-236,088	166,358	-0,007	-0,007
-235,073	800,000	0,051	0,157
-234,059	264,913	0,113	0,144
-233,044	-200,000	0,014	0,072
-232,030	-200,000	0,003	-0,020
-231,015	130,514	-0,059	-0,055
-230,000	222,674	0,012	0,014
-228,986	-88,479	0,168	-0,036
-227,971	-158,552	0,150	0,006
-226,957	-200,000	0,000	0,098
-225,942	-64,184	0,043	0,013
-224,927	-200,000	0,001	0,116
-223,913	405,305	0,050	-0,077
-222,898	56,764	-0,149	-0,106
-221,884	-188,528	0,045	-0,000
-220,869	279,384	-0,049	0,064
-219,855	-63,364	0,101	-0,030
-218,840	118,984	-0,049	0,044
-217,825	-200,000	-0,009	0,097
-216,811	413,347	0,065	-0,101
-215,796	755,960	-0,018	0,036
-214,782	-200,000	-0,015	-0,074
-213,767	-6,676	-0,103	-0,051
-212,752	-128,319	0,088	-0,009
-211,738	70,573	0,022	0,017
-210,723	-46,127	-0,041	0,015
-209,709	362,278	-0,041	-0,060
-208,694	142,115	-0,066	0,064
-207,679	521,115	-0,051	0,087
-206,665	-128,766	-0,099	-0,010
-205,650	217,914	0,122	-0,142
-204,636	-78,905	-0,040	0,010
-203,621	-74,921	0,116	0,030
-202,606	-200,000	0,023	-0,093
-201,592	210,134	0,073	-0,083
-200,577	-200,000	-0,000	-0,049
-199,563	211,283	0,093	-0,107
-198,548	39,196	0,047	-0,031
-197,533	200,811	-0,024	0,027
-196,519	800,000	0,030	0,072
-195,504	-200,000	0,007	0,122
-194,490	-200,000	0,010	0,048
-193,475	-200,000	-0,005	-0,097
-192,460	-9,471	0,047	0,023
-191,446	800,000	0,044	-0,130
-190,431	800,000	0,019	-0,045
-189,417	-200,000	0,002	0,047
-188,402	-96,046	-0,019	-0,004
-187,387	283,505	-0,073	-0,096
-186,373	194,688	-0,114	-0,127
-185,358	205,897	-0,049	-0,055
-184,344	-178,584	0,081	0,001
-183,329	164,894	-0,039	0,040
-182,315	-37,285	0,017	0,007
-181,300	-200,000	-0,005	-0,108
-180,285	9,862	0,099	-0,054
-179,271	-23,568	-0,139	-0,061
-178,256	86,714	-0,050	0,040
-177,242	-31,038	0,023	-0,009
-176,227	52,281	-0,081	0,056
-175,212	-200,000	-0,044	0,158
-174,198	800,000	0,047	0,129
-173,183	800,000	-0,009	-0,024
-172,169	800,000	0,025	-0,061
-171,154	221,052	-0,069	-0,080
-170,139	446,753	0,078	0,126
-169,125	-200,000	0,002	0,112
-168,110	81,947	0,107	0,084
-167,096	166,517	-0,020	-0,020
-166,081	575,927	-0,073	-0,131
-165,066	343,733	-0,065	0,094
-164,052	703,630	0,016	0,030
-163,037	-107,317	0,133	-0,021
-162,023	-154,069	0,078	0,004
-161,008	-70,280	-0,062	0,017
-159,993	-200,000	0,004	0,072
-158,979	77,574	-0,128	-0,099
-157,964	-200,000	0,010	-0,225
-156,950	-110,559	-0,070	-0,010
-155,935	-81,330	0,107	-0,025
-154,920	-200,000	-0,018	0,105
-153,906	-47,908	0,075	-0,026
-152,891	-8,680	-0,055	-0,027
-151,877	-200,000	-0,015	-0,081
-150,862	165,916	-0,072	-0,075
-149,847	-154,850	0,045	-0,002
-148,833	32,838	-0,113	-0,071
-147,818	402,685	-0,040	0,061
-146,804	386,131	-0,030	0,045
-145,789	-200,000	0,007	0,073
-144,775	800,000	-0,053	0,111
-143,760	-10,279	-0,069	-0,033
-142,745	226,163	0,046	-0,054
-141,731	225,327	-0,059	0,070
-140,716	800,000	0,038	0,077
-139,702	-200,000	0,009	-0,045
-138,687	54,424	0,114	0,080
-137,672	-92,506	-0,204	-0,041
-136,658	563,406	-0,107	-0,189
-135,643	-103,840	-0,116	0,019
-134,629	-191,450	-0,051	0,000
-133,614	-200,000	0,022	-0,127
-132,599	-200,000	-0,008	-0,121
-131,585	800,000	0,069	-0,159
-130,570	-156,221	-0,090	-0,004
-129,556	445,410	-0,016	-0,025
-128,541	202,745	-0,053	-0,059
-127,526	-37,528	-0,063	-0,024
-126,512	217,083	-0,023	0,027
-125,497	-39,655	-0,044	-0,017
-124,483	-200,000	0,014	0,045
-123,468	-200,000	-0,002	-0,138
-122,453	-200,000	-0,014	-0,052
-121,439	-98,248	0,027	-0,005
-120,424	-200,000	0,018	0,132
-119,410	112,212	0,091	-0,080
-118,395	334,299	-0,044	0,062
-117,380	-200,000	-0,005	0,057
-116,366	-62,414	-0,039	0,012
-115,351	800,000	-0,019	0,043
-114,337	79,823	0,049	0,038
-113,322	-200,000	-0,012	0,082
-112,307	152,961	0,154	-0,154
-111,293	-200,000	-0,005	0,104
-110,278	331,354	0,120	0,169
-109,264	800,000	-0,033	0,076
-108,249	-55,840	-0,087	-0,028
-107,234	-82,700	0,115	-0,027
-106,220	-50,017	0,078	-0,027
-105,205	-53,553	0,023	-0,008
-104,191	49,782	0,016	0,011
-103,176	-111,841	-0,093	-0,014
-102,162	-200,000	0,003	0,074
-101,147	-43,129	-0,069	0,025
-100,132	435,163	0,084	-0,134
-99,118	230,887	-0,089	-0,106
-98,103	51,896	-0,095	-0,066
-97,089	42,904	-0,045	0,030
-96,074	-55,960	-0,105	0,034
-95,059	374,045	0,033	-0,049
-94,045	228,827	0,085	-0,101
-93,030	-192,535	-0,060	-0,000
-92,016	-200,000	0,053	-0,184
-91,001	-200,000	-0,010	0,058
-89,986	624,271	0,010	-0,019
-88,972	221,217	0,024	-0,028
-87,957	72,903	-0,106	0,080
-86,943	-200,000	0,009	0,184
-85,928	-110,847	-0,024	0,003
-84,913	-200,000	0,004	0,025
-83,899	-109,685	-0,051	0,008
-82,884	325,454	0,066	-0,091
-81,870	645,939	0,041	-0,076
-80,855	-30,418	-0,089	0,037
-79,840	-27,238	-0,163	-0,069
-78,826	142,088	-0,094	-0,091
-77,811	-45,888	-0,026	-0,009
-76,797	-72,548	0,038	-0,010
-75,782	-200,000	0,002	0,061
-74,767	800,000	0,067	0,149
-73,753	800,000	0,078	0,191
-72,738	21,198	0,060	-0,035
-71,724	259,347	0,051	0,064
-70,709	-191,823	-0,130	0,001
-69,694	583,258	-0,037	-0,066
-68,680	4,579	-0,029	-0,016
-67,665	-143,390	-0,100	-0,007
-66,651	18,555	0,127	0,074
-65,636	-89,670	-0,080	-0,017
-64,622	24,293	0,101	0,060
-63,607	-16,146	-0,029	0,013
-62,592	800,000	0,032	-0,096
-61,578	404,065	0,042	0,064
-60,563	17,170	-0,097	0,056
-59,549	-200,000	-0,002	0,122
-58,534	-200,000	-1,323	0,001
-57,519	526,358	-0,879	-1,509
-56,505	-200,000	-0,925	-4,458
-55,490	108,310	0,609	-0,527
-54,476	800,000	4,958	11,900
-53,461	-200,000	13,327	252,901
-52,446	-200,000	688,997	2266,955
-51,432	595,125	1622,932	2925,844
-50,417	120,594	1635,812	1474,861
-49,403	73,641	1289,874	979,491
-48,388	38,387	1024,758	661,172
-47,373	24,545	982,162	588,170
-46,359	23,797	971,867	579,529
-45,344	22,716	967,912	573,613
-44,330	22,687	966,543	572,682
-43,315	22,598	964,881	571,386
-42,300	22,563	963,893	570,663
-41,286	22,568	962,976	570,114
-40,271	22,553	962,044	569,492
-39,257	22,602	961,046	569,038
-38,242	22,532	960,156	568,261
-37,227	22,547	959,205	567,723
-36,213	22,531	958,489	567,224
-35,198	22,557	957,368	566,624
-34,184	22,569	956,979	566,409
-33,169	22,579	955,930	565,797
-32,154	22,590	955,037	565,283
-31,140	22,596	954,122	564,738
-30,125	22,616	953,384	564,345
-29,111	22,588	952,541	563,731
-28,096	22,607	951,915	563,402
-27,082	22,596	951,138	562,882
-26,067	22,595	950,486	562,471
-25,052	22,586	949,631	561,915
-24,038	22,597	949,139	561,636
-23,023	22,587	948,430	561,161
-22,009	22,660	947,773	560,986
-20,994	22,608	947,277	560,502
-19,979	22,603	946,602	560,064
-18,965	22,658	945,896	559,801
-17,950	22,585	945,208	559,140
-16,936	22,524	944,818	558,693
-15,921	22,595	943,966	558,392
-14,906	22,501	943,259	557,651
-13,892	22,458	942,633	557,123
-12,877	22,498	941,856	556,769
-11,863	22,419	941,420	556,238
-10,848	22,445	940,796	555,929
-9,833	22,588	940,353	556,098
-8,819	22,531	939,769	555,553
-7,804	22,437	939,110	554,841
-6,790	22,467	938,498	554,553
-5,775	22,512	937,913	554,327
-4,760	22,502	937,259	553,887
-3,746	22,509	936,641	553,521
-2,731	22,396	935,946	552,732
-1,717	22,327	935,214	552,060
-0,702	22,314	934,556	551,611
0,313	22,153	933,814	551,496
1,327	25,176	931,827	559,782
2,342	34,782	796,586	504,135
3,356	32,856	451,977	283,113
4,371	1,791	294,033	153,163
5,386	-2,644	274,713	138,890
6,400	-4,086	268,944	134,622
7,415	-4,446	266,628	133,121
8,429	-4,234	265,378	132,678
9,444	-4,216	264,526	132,257
10,459	-4,267	263,730	131,801
11,473	-4,336	263,293	131,508
12,488	-4,368	262,703	131,172
13,502	-4,431	262,224	130,865
14,517	-4,575	261,684	130,454
15,531	-4,434	261,253	130,354
16,546	-4,484	260,923	130,133
17,561	-4,566	260,734	129,953
18,575	-4,175	260,292	130,073
19,590	-4,399	260,115	129,771
20,604	-4,410	259,719	129,553
21,619	-4,524	259,386	129,273
22,634	-4,559	259,160	129,118
23,648	-4,419	258,695	128,999
24,663	-4,453	258,423	128,822
25,677	-4,425	258,218	128,733
26,692	-4,582	258,161	128,553
27,707	-4,525	257,780	128,403
28,721	-4,356	257,368	128,336
29,736	-4,573	257,325	128,111
30,750	-4,632	256,991	127,881
31,765	-4,561	256,772	127,823
32,780	-4,481	256,475	127,735
33,794	-4,441	256,397	127,720
34,809	-4,541	255,954	127,400
35,823	-4,694	255,848	127,201
36,838	-4,636	255,437	127,037
37,853	-4,649	255,304	126,947
38,867	-4,679	255,159	126,838
39,882	-4,458	254,997	126,940
40,896	-4,564	254,685	126,680
41,911	-4,542	254,510	126,601
42,926	-4,639	254,208	126,355
43,940	-4,572	254,028	126,312
44,955	-4,823	253,712	125,925
45,969	-4,581	253,583	126,061
46,984	-4,999	253,400	125,594
47,999	-5,022	252,916	125,323
49,013	-5,062	252,779	125,209
50,028	-5,362	252,520	124,809
51,042	-5,361	252,266	124,674
52,057	-5,198	252,077	124,710
53,071	-5,352	251,970	124,512
54,086	-5,333	251,773	124,421
55,101	-5,172	251,582	124,454
56,115	-4,802	251,537	124,741
57,130	-4,539	251,311	124,845
58,144	-4,275	251,171	124,993
59,159	-4,386	251,020	124,810
60,174	-4,205	250,708	124,799
61,188	-4,485	250,554	124,471
62,203	-4,402	250,294	124,402
63,217	-4,446	250,119	124,266
64,232	-4,362	249,930	124,233
65,247	-4,205	249,780	124,282
66,261	-4,433	249,494	123,934
67,276	-4,627	249,259	123,640
68,290	-4,952	248,995	123,220
69,305	-5,010	248,785	123,056
70,320	-4,975	248,563	122,965
71,334	-4,528	248,383	123,246
72,349	-4,312	248,276	123,366
73,363	-4,152	248,094	123,400
74,378	-4,189	247,927	123,275
75,393	-4,286	247,743	123,090
76,407	-4,619	247,461	122,656
77,422	-4,411	247,145	122,665
78,436	-4,368	247,096	122,667
79,451	-4,311	246,870	122,592
80,466	-4,277	246,504	122,427
81,480	-4,672	246,476	122,069
82,495	-4,805	246,440	121,928
83,509	-4,773	246,147	121,799
84,524	-4,719	245,866	121,694
85,539	-4,933	245,635	121,389
86,553	-4,727	245,569	121,519
87,568	-4,668	245,302	121,425
88,582	-4,775	245,283	121,315
89,597	-4,838	244,909	121,067
90,611	-4,678	244,809	121,140
91,626	-4,429	244,702	121,285
92,641	-4,607	244,599	121,075
93,655	-4,585	244,371	120,969
94,670	-4,360	244,047	120,987
95,684	-4,466	243,895	120,811
96,699	-4,611	243,662	120,564
97,714	-4,707	243,594	120,439
98,728	-4,765	243,418	120,294
99,743	-4,996	243,045	119,907
100,757	-4,862	242,805	119,889
101,772	-4,856	242,804	119,883
102,787	-4,764	242,488	119,792
103,801	-4,699	242,351	119,768
104,816	-4,578	242,334	119,850
105,830	-4,493	242,029	119,758
106,845	-4,426	241,931	119,754
107,860	-4,446	241,744	119,634
108,874	-4,480	241,477	119,464
109,889	-4,638	241,133	119,152
110,903	-4,686	241,119	119,096
111,918	-4,760	240,955	118,943
112,933	-4,891	240,926	118,810
113,947	-4,600	240,685	118,920
114,962	-4,334	240,453	119,013
115,976	-4,578	240,320	118,736
116,991	-4,618	240,245	118,656
118,006	-4,482	240,021	118,646
119,020	-4,790	240,065	118,404
120,035	-4,414	239,783	118,563
121,049	-4,467	239,595	118,416
122,064	-4,358	239,353	118,376
123,079	-4,461	239,085	118,148
124,093	-4,602	238,902	117,932
125,108	-4,797	238,763	117,694
126,122	-5,046	238,522	117,362
127,137	-4,977	238,413	117,354
128,151	-4,967	238,176	117,235
129,166	-4,627	238,089	117,458
130,181	-5,012	237,884	117,034
131,195	-4,886	237,634	117,002
132,210	-4,656	237,444	117,085
133,224	-4,653	237,534	117,121
134,239	-4,624	237,298	117,018
135,254	-4,202	236,925	117,165
136,268	-4,462	236,768	116,867
137,283	-4,821	236,475	116,422
138,297	-4,971	236,319	116,213
139,312	-4,788	236,197	116,291
140,327	-4,743	236,064	116,251
141,341	-4,305	236,047	116,585
142,356	-4,124	235,927	116,661
143,370	-4,170	235,757	116,530
144,385	-4,276	235,649	116,381
145,400	-4,353	235,621	116,295
146,414	-4,230	235,265	116,207
147,429	-4,265	235,035	116,055
148,443	-4,461	234,872	115,807
149,458	-4,373	234,850	115,857
150,473	-4,383	234,682	115,756
151,487	-4,203	234,435	115,767
152,502	-4,276	234,279	115,622
153,516	-4,111	234,081	115,645
154,531	-4,049	233,793	115,542
155,546	-4,551	233,917	115,193
156,560	-4,416	233,634	115,151
157,575	-4,471	233,422	114,992
158,589	-4,416	233,230	114,931
159,604	-4,235	233,196	115,048
160,619	-4,176	232,997	114,986
161,633	-4,252	232,857	114,847
162,648	-4,217	232,696	114,785
163,662	-4,310	232,565	114,636
164,677	-4,244	232,341	114,568
165,692	-4,272	232,214	114,473
166,706	-4,258	232,060	114,398
167,721	-4,226	232,029	114,397
168,735	-4,113	231,673	114,301
169,750	-3,914	231,640	114,432
170,764	-4,277	231,578	114,104
171,779	-4,026	231,389	114,199
172,794	-4,112	231,033	113,945
173,808	-4,111	231,020	113,930
174,823	-4,644	230,738	113,362
175,837	-5,010	230,475	112,935
176,852	-4,510	230,477	113,318
177,867	-4,050	230,391	113,627
178,881	-3,886	230,207	113,654
179,896	-4,168	230,113	113,377
180,910	-4,119	229,767	113,234
181,925	-4,179	229,846	113,216
182,940	-4,128	229,576	113,113
183,954	-4,113	229,444	113,050
184,969	-3,959	229,277	113,078
185,983	-4,134	229,318	112,951
186,998	-4,352	229,127	112,677
188,013	-4,007	228,887	112,818
189,027	-4,140	228,623	112,574
190,042	-4,094	228,579	112,578
191,056	-3,786	228,313	112,676
192,071	-3,834	228,242	112,593
193,086	-4,069	228,090	112,326
194,100	-4,136	227,981	112,210
195,115	-4,371	227,592	111,828
196,129	-5,012	227,407	111,232
197,144	-1,294	228,695	114,737
198,159	3,051	229,628	118,570
199,173	4,017	229,903	119,452
200,188	4,002	229,658	119,303
201,202	4,140	229,563	119,349
202,217	4,386	229,554	119,524
203,232	4,400	229,434	119,462
204,246	4,612	229,360	119,577
205,261	4,611	229,241	119,504
206,275	4,720	229,072	119,489
207,290	4,778	228,879	119,422
208,304	4,846	228,650	119,344
209,319	4,570	228,482	119,033
210,334	4,815	228,368	119,153
211,348	4,696	228,039	118,879
212,363	4,256	227,829	118,420
213,377	3,894	227,646	118,038
214,392	3,848	227,553	117,943
215,407	3,959	227,474	117,977
216,421	4,050	227,261	117,925
217,436	4,084	226,969	117,789
218,450	3,854	226,759	117,494
219,465	3,645	226,562	117,222
220,480	3,768	226,612	117,331
221,494	3,770	226,556	117,293
222,509	3,808	226,345	117,203
223,523	3,912	226,207	117,200
224,538	3,949	226,015	117,118
225,553	4,127	225,870	117,168
226,567	3,904	225,821	116,963
227,582	4,137	225,751	117,093
228,596	4,317	225,573	117,128
229,611	3,966	225,305	116,711
230,626	3,743	225,165	116,459
231,640	3,810	224,951	116,389
232,655	4,170	224,908	116,628
233,669	4,181	224,929	116,638
234,684	4,512	224,764	116,792
235,699	4,222	224,636	116,496
236,713	4,082	224,334	116,223
237,728	3,951	224,070	115,978
238,742	3,817	224,005	115,833
239,757	3,881	223,851	115,790
240,772	3,949	223,749	115,779
241,786	3,751	223,518	115,500
242,801	4,072	223,483	115,713
243,815	4,267	223,308	115,758
244,830	4,385	223,294	115,829
245,844	3,944	223,041	115,357
246,859	3,956	222,904	115,284
247,874	4,184	222,719	115,349
248,888	4,306	222,603	115,370
249,903	4,138	222,434	115,147
250,917	4,009	222,261	114,951
251,932	3,834	222,018	114,684
252,947	3,981	222,005	114,777
253,961	3,975	221,776	114,644
254,976	3,603	221,634	114,283
255,990	3,963	221,616	114,532
257,005	4,310	221,325	114,630
258,020	4,192	221,306	114,522
259,034	4,355	221,338	114,649
260,049	4,236	221,212	114,485
261,063	4,202	220,979	114,329
262,078	4,285	220,776	114,275
263,093	4,386	220,614	114,256
264,107	4,142	220,328	113,917
265,122	4,523	220,275	114,161
266,136	4,396	220,351	114,096
267,151	4,404	220,120	113,973
268,166	4,169	219,806	113,627
269,180	3,639	219,707	113,174
270,195	3,875	219,498	113,231
271,209	4,044	219,259	113,222
272,224	4,101	219,257	113,253
273,239	4,075	219,110	113,148
274,253	3,866	218,899	112,875
275,268	3,636	218,660	112,573
276,282	3,796	218,484	112,590
277,297	3,744	218,389	112,493
278,312	3,711	218,236	112,380
279,326	4,020	218,310	112,634
280,341	3,810	218,097	112,360
281,355	3,890	218,045	112,382
282,370	3,890	217,901	112,298
283,384	3,567	217,633	111,914
284,399	3,614	217,488	111,863
285,414	3,572	217,320	111,737
286,428	3,913	217,244	111,935
287,443	4,224	217,119	112,088
288,457	4,061	217,163	111,981
289,472	3,754	216,925	111,626
290,487	3,464	216,593	111,235
291,501	3,348	216,527	111,107
292,516	3,532	216,427	111,179
293,530	3,706	216,212	111,185
294,545	3,439	216,112	110,930
295,560	3,855	215,972	111,149
296,574	4,034	215,874	111,218
297,589	3,999	215,691	111,089
298,603	4,156	215,604	111,147
299,618	4,212	215,522	111,135
300,633	4,041	215,210	110,842
301,647	4,228	215,245	110,985
302,662	4,235	215,154	110,933
303,676	4,275	214,929	110,835
304,691	4,281	214,755	110,740
305,706	4,318	214,726	110,742
306,720	4,303	214,636	110,674
307,735	3,953	214,430	110,308
308,749	3,809	214,193	110,073
309,764	4,078	214,053	110,184
310,779	4,309	214,029	110,327
311,793	4,004	213,966	110,066
312,808	3,911	213,679	109,843
313,822	4,214	213,602	110,009
314,837	3,946	213,389	109,699
315,852	3,784	213,298	109,527
316,866	3,877	213,032	109,446
317,881	4,061	213,214	109,662
318,895	4,303	212,825	109,623
319,910	3,931	212,792	109,332
320,925	3,562	212,585	108,954
321,939	3,329	212,190	108,576
322,954	3,285	212,377	108,631
323,968	3,934	212,244	109,014
324,983	4,020	212,133	109,008
325,997	4,403	211,908	109,154
327,012	4,108	211,827	108,894
328,027	4,014	211,610	108,706
329,041	4,570	211,598	109,083
330,056	4,508	211,501	108,979
331,070	4,035	211,287	108,525
332,085	3,948	210,996	108,306
333,100	4,052	210,866	108,303
334,114	3,975	210,809	108,209
335,129	3,853	210,608	108,010
336,143	3,595	210,507	107,768
337,158	3,726	210,461	107,827
338,173	3,911	210,293	107,861
339,187	3,679	210,081	107,580
340,202	3,574	209,922	107,416
341,216	3,416	209,937	107,303
342,231	3,752	209,718	107,417
343,246	3,487	209,539	107,129
344,260	3,765	209,514	107,302
345,275	3,887	209,468	107,354
346,289	3,692	209,311	107,128
347,304	3,992	209,217	107,279
348,319	3,911	209,095	107,151
349,333	4,111	208,758	107,108
350,348	3,886	208,752	106,939
351,362	3,950	208,741	106,968
352,377	4,110	208,461	106,926
353,392	4,127	208,282	106,836
354,406	3,973	208,284	106,721
355,421	194,075	1346,314	1435,504
356,435	154,850	1485,081	1435,634
